Data from 18_USB2G479881__0__16-20-00-682.txt Node

Date: Wed Feb 25 16:20:00 GMT 2026
User: Student
Spectrometer: USB2G47988
Scans to average: 250
Trigger mode: 4
Integration Time (sec): 2.000000E-2
Electric dark correction enabled: true
Boxcar width: 0
XAxis mode: Wavelengths
Number of Pixels in Spectrum: 651
>>>>>Begin Spectral Data<<<<<
350	-0.24803
351	-0.15446
352	-0.004
353	0.21874
354	0.18776
355	0.42681
356	0.53008
357	0.58487
358	0.7366
359	0.83468
360	1.03048
361	1.39461
362	1.68936
363	1.17346
364	1.40888
365	2.1897
366	2.08631
367	2.08406
368	2.44602
369	1.95229
370	2.43771
371	2.6488
372	2.46874
373	2.69094
374	2.93677
375	2.80632
376	2.91879
377	3.68156
378	3.20058
379	3.19192
380	3.34287
381	3.36236
382	3.79488
383	3.42067
384	4.33393
385	3.72992
386	4.09333
387	3.93097
388	4.31692
389	4.31548
390	4.16126
391	4.15395
392	4.34634
393	4.75078
394	4.67458
395	4.38885
396	4.51142
397	5.18139
398	5.50598
399	4.99616
400	4.90943
401	5.18703
402	4.86853
403	4.89786
404	4.81192
405	4.84633
406	5.69221
407	5.18495
408	5.12412
409	5.20997
410	5.27735
411	5.23338
412	5.6878
413	5.43934
414	5.55007
415	5.33935
416	5.47002
417	5.67915
418	5.69676
419	5.58338
420	5.81664
421	5.78738
422	6.12472
423	5.57031
424	5.70377
425	7.16025
426	6.32241
427	5.80354
428	5.91574
429	6.53879
430	6.38721
431	6.84539
432	6.03599
433	6.51416
434	6.10343
435	5.9489
436	6.84631
437	6.12218
438	6.22929
439	6.87426
440	6.51567
441	5.81597
442	5.83808
443	6.37039
444	6.0273
445	5.53358
446	10.12947
447	6.20471
448	6.33569
449	6.35175
450	6.29224
451	6.2421
452	6.05146
453	6.27025
454	6.70003
455	6.32482
456	6.27143
457	6.45951
458	6.08742
459	6.42078
460	6.36278
461	6.13622
462	6.33036
463	6.22267
464	6.38601
465	6.06776
466	5.87265
467	5.96899
468	6.4832
469	6.17855
470	6.07402
471	5.96052
472	5.94545
473	5.99847
474	5.9418
475	5.8486
476	5.91977
477	6.14592
478	5.98846
479	6.02583
480	5.90298
481	6.49384
482	6.04615
483	5.78024
484	5.68624
485	5.28782
486	6.0591
487	5.64175
488	5.44812
489	6.73697
490	5.99639
491	5.56438
492	5.78243
493	5.47093
494	5.6725
495	5.54513
496	5.4369
497	5.81779
498	5.72656
499	5.47393
500	5.39235
501	6.0031
502	5.36646
503	5.35077
504	5.53625
505	5.40789
506	5.28735
507	5.28387
508	5.34955
509	7.80094
510	5.87714
511	5.33606
512	5.01416
513	5.57942
514	5.20402
515	5.38189
516	5.38087
517	5.29788
518	5.49036
519	5.06928
520	5.69623
521	5.08745
522	5.16435
523	5.37751
524	5.07655
525	7.37182
526	5.82341
527	5.40783
528	5.15228
529	5.69549
530	5.49796
531	5.26047
532	5.26457
533	5.4005
534	5.20136
535	5.64054
536	5.44097
537	6.87002
538	5.31775
539	5.05902
540	5.25307
541	5.22066
542	5.07617
543	4.87531
544	5.04398
545	5.2209
546	5.96622
547	4.85544
548	4.93864
549	4.69714
550	5.1496
551	5.0232
552	4.74994
553	4.40865
554	4.65728
555	4.63551
556	4.85665
557	4.63478
558	4.99951
559	4.87659
560	4.42556
561	4.62578
562	4.58985
563	4.5864
564	4.55998
565	4.01878
566	4.70056
567	4.2818
568	4.03785
569	4.45534
570	4.18229
571	4.19877
572	4.01338
573	4.12736
574	4.04245
575	4.12855
576	4.02743
577	4.12199
578	3.90694
579	3.53658
580	3.94795
581	4.10952
582	4.19828
583	3.99543
584	3.91818
585	4.40268
586	3.80831
587	3.83146
588	3.89212
589	3.71648
590	4.15088
591	3.76101
592	3.6465
593	3.63943
594	4.60534
595	3.86888
596	4.09616
597	4.62894
598	4.79877
599	4.05113
600	4.04076
601	4.5899
602	4.53929
603	3.89207
604	4.42244
605	4.98719
606	3.87574
607	3.80637
608	4.30424
609	4.40033
610	4.22467
611	4.1533
612	3.90721
613	4.43452
614	5.95299
615	4.89988
616	4.26485
617	4.68688
618	4.38109
619	4.31154
620	4.55433
621	4.76397
622	4.49334
623	4.55734
624	4.67065
625	5.23882
626	5.41339
627	5.88662
628	6.07897
629	6.22181
630	5.7635
631	6.31781
632	7.94854
633	6.59155
634	7.04423
635	7.30021
636	7.81353
637	7.92122
638	8.43088
639	9.1392
640	10.02922
641	10.30319
642	10.94568
643	11.73659
644	12.83626
645	15.90576
646	17.01341
647	17.96288
648	19.46026
649	21.99545
650	25.36906
651	30.25962
652	39.58173
653	79.14548
654	239.60878
655	3468.2533
656	1800.06041
657	247.08905
658	48.87163
659	31.69183
660	21.70475
661	17.43566
662	13.9554
663	12.96646
664	10.8626
665	10.27858
666	8.64568
667	8.20659
668	7.52671
669	6.93181
670	6.64366
671	6.15822
672	5.55172
673	5.29144
674	5.51754
675	6.26518
676	5.10747
677	4.86859
678	5.05245
679	4.88391
680	4.26633
681	4.26989
682	4.21173
683	3.9761
684	4.01915
685	4.73267
686	3.65285
687	3.09613
688	3.50422
689	3.08353
690	3.60954
691	3.00517
692	2.93158
693	3.42549
694	3.14256
695	3.42961
696	2.90721
697	2.85537
698	2.68282
699	2.83215
700	2.82981
701	2.93387
702	2.90979
703	2.6877
704	2.70811
705	3.20122
706	3.09866
707	2.67952
708	2.78281
709	2.67652
710	2.56753
711	3.01771
712	2.76859
713	3.07391
714	2.30424
715	7.1943
716	2.89215
717	2.53402
718	2.50066
719	2.84343
720	2.45357
721	2.55561
722	2.66574
723	2.7777
724	2.19052
725	2.77292
726	2.61122
727	2.58447
728	2.51496
729	2.00814
730	3.68296
731	3.15254
732	2.48334
733	2.16758
734	2.3048
735	2.6357
736	2.91356
737	3.21387
738	2.43098
739	2.47639
740	2.18783
741	3.72828
742	2.28113
743	3.01079
744	2.79163
745	2.2835
746	2.58379
747	2.63867
748	3.11182
749	2.308
750	2.09008
751	2.24855
752	2.1961
753	2.42982
754	2.04314
755	2.51747
756	2.2206
757	3.10546
758	3.66289
759	3.18786
760	2.23771
761	2.37322
762	3.00518
763	2.31812
764	2.03027
765	2.66111
766	2.6102
767	3.24498
768	2.23082
769	2.19233
770	2.08826
771	2.28658
772	2.35401
773	2.06323
774	2.21239
775	1.98576
776	3.11123
777	2.4066
778	2.05738
779	2.05964
780	2.33282
781	2.55866
782	2.23974
783	2.59015
784	2.27424
785	1.96987
786	2.06376
787	1.90043
788	3.40859
789	2.05316
790	2.00914
791	2.08495
792	1.83393
793	2.29584
794	2.20855
795	2.01448
796	1.84173
797	2.28182
798	2.09256
799	2.14024
800	1.9386
801	2.08931
802	1.96445
803	2.88851
804	2.14015
805	2.14738
806	2.0991
807	2.17405
808	2.19559
809	2.1651
810	2.38609
811	2.75641
812	3.3677
813	2.06099
814	2.07575
815	2.27516
816	1.99962
817	2.26472
818	2.03419
819	2.09317
820	1.73401
821	3.08241
822	2.50669
823	1.88776
824	2.28346
825	1.93862
826	1.73742
827	1.84219
828	1.92187
829	1.56991
830	2.26846
831	2.02065
832	1.70011
833	2.43122
834	1.89473
835	1.92898
836	1.85564
837	2.09593
838	1.82101
839	1.95626
840	2.64001
841	1.99317
842	2.24452
843	1.9558
844	2.17437
845	1.94231
846	1.91316
847	2.37651
848	2.18231
849	1.8852
850	2.08582
851	1.85315
852	1.80673
853	1.64734
854	1.77798
855	1.86979
856	2.37665
857	2.06597
858	1.95611
859	2.15928
860	1.83563
861	2.03272
862	2.44283
863	2.01845
864	1.75381
865	2.31169
866	2.53014
867	2.23458
868	1.75971
869	2.37452
870	2.00986
871	2.83346
872	4.03585
873	1.87533
874	2.17943
875	2.01981
876	2.45679
877	1.87903
878	1.8325
879	2.5457
880	2.08509
881	2.05147
882	2.42431
883	1.84686
884	2.30838
885	1.91557
886	1.93938
887	3.03582
888	2.16123
889	1.88734
890	2.24336
891	2.63541
892	4.39204
893	2.30072
894	2.6819
895	2.20851
896	2.30549
897	1.92606
898	1.8141
899	2.07719
900	2.40926
901	4.93242
902	2.12632
903	2.02797
904	1.91209
905	2.12195
906	2.02992
907	1.7425
908	2.89684
909	2.12866
910	2.0256
911	2.03614
912	1.93587
913	1.92633
914	2.20388
915	2.13509
916	1.87886
917	2.16034
918	2.02336
919	2.07296
920	1.94603
921	2.40877
922	2.57463
923	2.13181
924	2.45034
925	2.06731
926	1.9438
927	2.10675
928	2.02653
929	1.99454
930	1.90757
931	2.14072
932	2.12932
933	1.97842
934	2.31465
935	2.08338
936	2.17487
937	1.82824
938	2.03325
939	2.39784
940	1.7302
941	1.93935
942	1.83519
943	1.98054
944	1.9382
945	3.81689
946	1.93339
947	2.4621
948	2.59189
949	2.20301
950	2.35305
951	2.21172
952	1.94143
953	1.98444
954	2.15088
955	1.90216
956	2.04201
957	1.84919
958	1.85425
959	1.93816
960	1.92787
961	1.98045
962	2.10586
963	2.09101
964	1.58696
965	1.92966
966	1.92678
967	1.81952
968	1.65982
969	2.57452
970	1.8344
971	1.96794
972	1.52802
973	2.05989
974	1.94568
975	1.78631
976	2.3223
977	2.06622
978	3.425
979	2.19862
980	2.00074
981	2.21499
982	2.02851
983	2.04533
984	2.90863
985	2.12695
986	2.42143
987	1.89115
988	2.18028
989	1.99256
990	2.09114
991	1.88555
992	2.59236
993	2.19568
994	2.45539
995	1.91754
996	2.00376
997	2.00634
998	1.88012
999	2.30354
1000	1.77638
