Data from 27_USB2G479881__0__16-25-08-178.txt Node

Date: Wed Feb 25 16:25:08 GMT 2026
User: Student
Spectrometer: USB2G47988
Scans to average: 250
Trigger mode: 4
Integration Time (sec): 2.000000E-2
Electric dark correction enabled: true
Boxcar width: 0
XAxis mode: Wavelengths
Number of Pixels in Spectrum: 651
>>>>>Begin Spectral Data<<<<<
350	-0.44023
351	-0.23381
352	0.24071
353	-0.00864
354	0.44197
355	0.85259
356	0.64412
357	0.69557
358	0.91587
359	0.88992
360	1.06329
361	1.21634
362	1.62672
363	1.45406
364	1.37774
365	2.30489
366	1.73917
367	2.0023
368	2.70594
369	2.16056
370	2.16724
371	2.53669
372	2.72271
373	2.60024
374	2.84652
375	2.70446
376	2.83786
377	3.67069
378	3.23392
379	3.28436
380	3.44374
381	3.45281
382	3.74942
383	3.25219
384	4.63442
385	3.72131
386	4.11873
387	3.85787
388	4.08607
389	4.32889
390	3.89006
391	4.17059
392	4.17557
393	4.94334
394	4.42223
395	4.2646
396	4.19406
397	4.93394
398	5.16124
399	4.75406
400	4.83877
401	5.09361
402	4.86159
403	4.76738
404	4.54659
405	4.77988
406	5.64868
407	4.95198
408	5.07566
409	5.15333
410	5.49537
411	5.30804
412	5.08825
413	5.17988
414	5.13894
415	5.09401
416	5.68029
417	5.31641
418	5.33179
419	5.26805
420	5.10642
421	5.74499
422	5.58617
423	5.41218
424	5.59807
425	7.07925
426	5.78891
427	5.59642
428	5.88641
429	6.2378
430	6.16477
431	6.43911
432	5.78516
433	5.83673
434	5.53681
435	5.65099
436	6.18165
437	6.01726
438	6.15155
439	6.44525
440	6.43099
441	5.57836
442	5.69735
443	5.99938
444	5.93482
445	5.24112
446	9.78585
447	6.01837
448	6.21282
449	6.00511
450	5.91533
451	5.56317
452	5.91144
453	5.90207
454	6.15352
455	5.66716
456	6.02048
457	5.85152
458	5.77341
459	5.8222
460	5.90719
461	5.67768
462	5.66554
463	5.72891
464	5.95666
465	5.64164
466	5.57005
467	6.08874
468	6.32211
469	6.11784
470	5.59441
471	5.28608
472	5.38015
473	5.35644
474	5.62801
475	5.57579
476	5.64346
477	5.52998
478	5.47419
479	5.59111
480	5.81195
481	6.11292
482	5.77406
483	5.37873
484	5.59743
485	5.35228
486	5.49501
487	5.13192
488	5.22575
489	6.36684
490	5.60891
491	5.19442
492	5.56787
493	5.37161
494	5.36379
495	5.25184
496	5.03038
497	5.45707
498	5.48493
499	5.34869
500	4.79385
501	5.49053
502	5.2718
503	4.91661
504	5.31658
505	5.12031
506	4.61695
507	4.71055
508	5.27473
509	7.52646
510	5.85596
511	5.1421
512	5.07913
513	5.261
514	5.06055
515	4.80198
516	5.12882
517	4.90748
518	5.1662
519	4.67156
520	5.1055
521	4.81306
522	4.99028
523	4.6995
524	4.91424
525	6.72155
526	5.53918
527	4.87141
528	4.85546
529	5.06041
530	4.59687
531	4.88214
532	4.64345
533	4.77529
534	4.29547
535	4.88198
536	4.88109
537	6.15872
538	4.9365
539	4.60475
540	4.47115
541	4.50315
542	4.2948
543	4.32464
544	4.40076
545	4.42668
546	5.40202
547	4.52981
548	4.79471
549	4.55889
550	4.49541
551	4.22259
552	4.22451
553	4.09627
554	4.00989
555	4.2594
556	4.3888
557	4.18888
558	4.51189
559	4.12342
560	4.01368
561	4.06332
562	3.94444
563	4.03246
564	4.2475
565	3.90404
566	4.0652
567	3.83667
568	3.72437
569	4.30932
570	3.88393
571	3.75678
572	3.61517
573	3.69862
574	3.75508
575	3.63209
576	3.66208
577	3.90284
578	3.55685
579	3.5209
580	3.64324
581	3.76838
582	4.058
583	3.46119
584	3.64284
585	4.02492
586	3.64284
587	3.76792
588	3.61897
589	3.42333
590	3.7453
591	3.45511
592	3.44937
593	3.50391
594	4.20221
595	3.5489
596	3.91676
597	4.05392
598	4.54883
599	3.63767
600	3.72704
601	3.94459
602	4.2429
603	3.84877
604	3.56481
605	4.54232
606	3.25478
607	3.78994
608	3.66673
609	3.55126
610	3.64871
611	3.5801
612	3.28437
613	3.71632
614	4.85108
615	3.91376
616	3.80626
617	3.9115
618	3.77004
619	3.65512
620	3.64276
621	3.95898
622	3.51158
623	4.05281
624	3.93507
625	3.71199
626	3.88413
627	4.29682
628	4.61276
629	4.51801
630	3.92033
631	4.53412
632	6.16654
633	4.89086
634	4.85432
635	4.5552
636	4.72689
637	4.68143
638	5.36963
639	5.64496
640	6.58975
641	6.10318
642	6.26334
643	6.78514
644	7.3712
645	9.13
646	10.09432
647	9.57597
648	10.00764
649	11.09964
650	12.92896
651	14.95581
652	18.9609
653	34.27804
654	104.06785
655	1797.89724
656	509.34089
657	66.49841
658	26.69731
659	16.77511
660	11.75199
661	9.29456
662	7.92961
663	7.86629
664	6.6093
665	5.6454
666	5.28244
667	4.96057
668	4.8618
669	4.59559
670	4.46443
671	4.01356
672	3.63836
673	4.0868
674	3.71646
675	4.40331
676	3.88191
677	3.85469
678	4.11743
679	3.75517
680	3.26375
681	3.42045
682	3.4201
683	3.08128
684	3.56771
685	3.98232
686	2.94144
687	3.0724
688	2.63656
689	2.68442
690	3.37839
691	2.77579
692	2.66106
693	3.06789
694	2.63978
695	3.01711
696	2.87445
697	2.51092
698	2.28257
699	2.91609
700	2.52232
701	2.75092
702	2.58577
703	2.34977
704	2.63329
705	3.13403
706	2.37017
707	2.4584
708	2.52001
709	2.20726
710	2.24272
711	2.8235
712	2.7177
713	3.21855
714	2.36325
715	7.34048
716	3.11684
717	2.76486
718	2.54545
719	2.93802
720	2.43582
721	2.32816
722	2.46782
723	2.4377
724	2.1732
725	2.76389
726	2.45363
727	2.56334
728	2.08933
729	2.4239
730	3.82555
731	3.0631
732	2.49202
733	2.32625
734	2.15798
735	2.43761
736	2.46265
737	3.0029
738	2.41353
739	2.67644
740	2.37832
741	3.84496
742	2.54423
743	2.89414
744	2.61024
745	2.24004
746	2.66219
747	2.71964
748	3.00673
749	2.54596
750	2.48719
751	2.35023
752	2.22484
753	2.27447
754	2.07806
755	2.64064
756	2.16267
757	2.97349
758	3.36762
759	2.86635
760	2.197
761	2.06388
762	4.02393
763	2.44208
764	2.14436
765	2.79339
766	2.77905
767	3.22063
768	2.58854
769	2.30823
770	2.09562
771	2.18891
772	2.49602
773	1.9747
774	2.19625
775	1.89989
776	2.82199
777	2.42041
778	2.21543
779	2.11854
780	1.96242
781	2.13035
782	1.82956
783	2.66325
784	2.60928
785	2.03717
786	2.40943
787	2.11643
788	3.20087
789	1.90244
790	2.21816
791	1.87691
792	1.86807
793	2.12148
794	1.95684
795	2.06777
796	2.04589
797	2.27401
798	2.26477
799	2.26619
800	2.44028
801	2.19298
802	2.35611
803	2.86494
804	1.90823
805	2.03553
806	2.30346
807	2.39299
808	2.21256
809	2.31925
810	2.19685
811	2.9929
812	3.37317
813	2.05481
814	2.23908
815	2.46804
816	2.27255
817	2.42692
818	2.08846
819	1.93074
820	2.00992
821	3.33544
822	2.82088
823	2.10212
824	1.92915
825	2.10417
826	2.20077
827	1.89753
828	2.05748
829	2.08926
830	2.08344
831	2.18327
832	2.00689
833	1.97947
834	2.05838
835	2.16784
836	1.99487
837	1.85606
838	2.14271
839	2.19669
840	2.40288
841	2.12579
842	2.25805
843	1.97859
844	2.19803
845	2.01585
846	2.10866
847	3.6103
848	2.23006
849	1.93835
850	2.13682
851	2.10357
852	1.80164
853	2.14928
854	1.87861
855	2.00603
856	2.13399
857	2.09094
858	2.02058
859	1.99163
860	1.81124
861	1.94752
862	2.62003
863	1.90325
864	2.00086
865	2.22711
866	2.48084
867	2.60853
868	2.0446
869	1.99044
870	2.18413
871	2.73932
872	4.03759
873	1.96979
874	2.02195
875	2.10617
876	2.60493
877	1.96875
878	1.91605
879	2.29451
880	2.27282
881	2.10036
882	2.36338
883	1.99405
884	2.1672
885	1.86964
886	2.0828
887	3.36489
888	2.51624
889	1.97409
890	2.22102
891	2.65913
892	4.13066
893	2.56763
894	3.03561
895	2.13461
896	2.29827
897	1.91298
898	2.16103
899	1.9527
900	2.63103
901	4.914
902	2.09123
903	1.98182
904	1.9913
905	2.11402
906	1.92651
907	1.68001
908	2.90509
909	2.18665
910	1.61575
911	1.88586
912	1.81631
913	1.74962
914	2.16587
915	2.03272
916	1.85476
917	2.21658
918	1.94538
919	1.97162
920	1.90514
921	2.68878
922	2.94423
923	1.99897
924	2.37044
925	2.03393
926	1.79794
927	2.39767
928	2.08556
929	1.92007
930	1.9978
931	1.87914
932	2.18339
933	2.00937
934	2.15198
935	2.36488
936	2.11585
937	1.92308
938	2.25361
939	1.94008
940	2.4187
941	1.90704
942	2.00787
943	1.8541
944	2.10713
945	3.65826
946	2.15397
947	2.64101
948	2.77293
949	2.24969
950	2.54816
951	2.34424
952	1.77618
953	1.96387
954	2.20203
955	1.91577
956	1.89044
957	2.07174
958	2.23429
959	1.96275
960	1.93323
961	1.64084
962	1.84043
963	2.18913
964	1.94263
965	1.88988
966	1.86792
967	1.90635
968	1.96637
969	2.80212
970	1.92634
971	2.1899
972	1.86187
973	2.03703
974	1.87748
975	1.88034
976	1.94385
977	2.29856
978	3.99126
979	2.1228
980	2.30798
981	2.24388
982	2.13952
983	2.03222
984	3.06769
985	1.87889
986	2.16877
987	2.18326
988	2.50921
989	2.30637
990	1.97991
991	2.00089
992	2.64516
993	2.16635
994	2.65041
995	1.75544
996	1.90124
997	2.58891
998	2.67603
999	2.25148
1000	2.03389
