Data from 30_USB2G479881__0__16-26-42-173.txt Node

Date: Wed Feb 25 16:26:42 GMT 2026
User: Student
Spectrometer: USB2G47988
Scans to average: 250
Trigger mode: 4
Integration Time (sec): 2.000000E-2
Electric dark correction enabled: true
Boxcar width: 0
XAxis mode: Wavelengths
Number of Pixels in Spectrum: 651
>>>>>Begin Spectral Data<<<<<
350	-0.22913
351	-0.30203
352	0.068
353	0.18264
354	0.28052
355	0.47162
356	0.65004
357	0.77782
358	0.71515
359	0.88255
360	1.14925
361	1.45732
362	1.33787
363	1.22431
364	1.39521
365	1.96487
366	2.30437
367	2.23979
368	2.64781
369	2.10056
370	2.30068
371	2.37074
372	2.70512
373	2.76723
374	2.42537
375	2.73054
376	2.78514
377	3.42729
378	3.17498
379	3.2278
380	3.2798
381	3.4104
382	3.96776
383	3.27082
384	4.0373
385	3.74101
386	4.20749
387	4.02228
388	4.24331
389	4.19197
390	3.90389
391	4.23044
392	4.20916
393	4.60766
394	4.67718
395	4.30565
396	4.41752
397	4.9428
398	5.38844
399	4.58021
400	4.74673
401	5.01288
402	4.92618
403	4.96775
404	4.64049
405	4.68026
406	5.55222
407	4.77279
408	4.95407
409	4.96198
410	5.445
411	5.46517
412	5.34538
413	5.05643
414	5.30671
415	5.1838
416	5.1558
417	5.40352
418	5.49504
419	5.23047
420	5.42065
421	5.51262
422	5.88271
423	5.87215
424	5.65445
425	6.95025
426	5.83696
427	5.50448
428	5.48027
429	6.36334
430	6.52965
431	6.44452
432	5.64138
433	6.00399
434	5.83286
435	5.71971
436	6.4529
437	5.88831
438	6.2024
439	6.59788
440	6.65475
441	5.8102
442	5.79549
443	6.31883
444	5.82516
445	5.41774
446	10.03263
447	6.1879
448	5.96851
449	5.8955
450	5.86244
451	5.959
452	5.81792
453	5.89457
454	6.59039
455	5.71664
456	5.71131
457	5.96929
458	5.72579
459	5.88358
460	5.97288
461	5.86354
462	6.07911
463	5.86823
464	5.88441
465	5.75289
466	5.73738
467	5.62101
468	6.4704
469	6.04879
470	5.77471
471	5.41801
472	5.30722
473	5.76956
474	5.72711
475	5.71517
476	5.40192
477	5.6343
478	5.63255
479	5.76006
480	5.20619
481	5.93265
482	5.71624
483	5.30736
484	5.34283
485	5.484
486	5.6212
487	5.20619
488	5.47729
489	6.26126
490	5.66893
491	5.214
492	5.66712
493	5.26441
494	5.27309
495	5.41892
496	5.48206
497	5.57574
498	5.50078
499	5.15949
500	5.14564
501	5.50411
502	5.03472
503	5.13717
504	5.66926
505	5.28584
506	4.93799
507	4.95465
508	5.01127
509	7.62091
510	5.53971
511	4.81625
512	4.89117
513	5.09903
514	4.8846
515	4.86839
516	4.92081
517	4.54449
518	5.16513
519	4.69206
520	5.23335
521	4.9064
522	4.74873
523	4.5387
524	4.68034
525	6.69052
526	5.37921
527	4.9967
528	4.64221
529	5.44894
530	4.84642
531	4.37234
532	4.56464
533	4.84626
534	4.42168
535	4.80407
536	4.80506
537	6.11628
538	4.39963
539	4.54341
540	4.65635
541	4.56141
542	4.015
543	4.31871
544	4.18612
545	4.18497
546	5.21749
547	4.19045
548	4.31586
549	4.46781
550	4.34579
551	3.8834
552	3.97482
553	3.96684
554	4.20431
555	4.3695
556	4.49107
557	4.09975
558	4.45797
559	4.19463
560	3.98675
561	3.97695
562	4.09645
563	4.23178
564	4.39356
565	3.52633
566	3.93947
567	3.94227
568	3.59993
569	4.09162
570	3.87534
571	3.90256
572	3.50191
573	3.80936
574	3.65629
575	3.54484
576	3.93428
577	3.9576
578	3.90166
579	3.53975
580	3.44768
581	3.6288
582	4.13152
583	3.52643
584	3.30692
585	3.94553
586	3.4907
587	3.64647
588	3.48626
589	3.36594
590	3.63876
591	3.37218
592	3.46033
593	3.5515
594	3.98475
595	3.32315
596	3.83157
597	4.11375
598	4.4649
599	3.62164
600	3.43192
601	3.93494
602	4.01135
603	3.39801
604	3.33957
605	4.31155
606	3.45088
607	3.29102
608	3.59653
609	3.68949
610	3.42993
611	3.31535
612	3.31803
613	3.15256
614	4.53105
615	3.75761
616	3.53918
617	3.64283
618	3.42057
619	3.36608
620	3.69973
621	3.60875
622	3.53671
623	3.62581
624	3.50352
625	3.58595
626	3.6612
627	3.96858
628	4.02449
629	4.2805
630	4.00941
631	3.91572
632	5.55648
633	4.30906
634	4.55661
635	4.01091
636	4.28588
637	4.24554
638	4.25883
639	4.72407
640	5.82699
641	4.89644
642	5.22824
643	5.20708
644	5.59835
645	7.45404
646	8.52893
647	7.30385
648	8.02172
649	8.10346
650	9.60004
651	10.70345
652	13.43165
653	22.62132
654	63.24048
655	1156.45159
656	332.71843
657	50.21638
658	19.55308
659	12.52255
660	8.88766
661	7.30648
662	6.15546
663	6.41926
664	4.92934
665	4.68174
666	4.38761
667	4.29781
668	4.11549
669	3.87381
670	3.61808
671	3.61666
672	3.5099
673	3.43682
674	3.16569
675	4.22879
676	3.48539
677	3.60594
678	3.91574
679	3.6211
680	2.82959
681	2.92405
682	3.29264
683	3.17292
684	3.15447
685	4.08761
686	2.91426
687	2.89793
688	2.75005
689	2.70801
690	2.825
691	2.65198
692	2.41233
693	2.7871
694	2.66065
695	3.29603
696	2.60951
697	2.35633
698	2.44762
699	2.48287
700	2.22788
701	2.31404
702	2.40753
703	2.42474
704	2.18778
705	2.75675
706	2.47507
707	2.32941
708	2.50755
709	2.26677
710	2.34982
711	3.05986
712	2.66621
713	2.8432
714	2.38737
715	7.31139
716	2.50168
717	2.57001
718	2.22753
719	2.9063
720	2.41724
721	2.2645
722	2.28199
723	2.36828
724	2.29604
725	2.67816
726	2.25378
727	2.31281
728	2.39539
729	2.50425
730	3.5124
731	2.80078
732	2.10896
733	1.95227
734	2.20343
735	2.40333
736	2.72451
737	2.83501
738	2.37089
739	2.55453
740	2.306
741	3.70951
742	2.57486
743	2.86638
744	2.4031
745	2.52403
746	2.68928
747	2.40097
748	2.85021
749	2.45836
750	2.30606
751	2.47887
752	2.19135
753	2.44462
754	1.88173
755	2.60099
756	2.06893
757	2.92486
758	3.48309
759	2.97577
760	2.21984
761	2.23858
762	3.42899
763	2.15205
764	1.95295
765	2.8652
766	2.52496
767	3.21776
768	2.1117
769	2.39954
770	2.36583
771	1.9803
772	2.45819
773	1.65638
774	2.06276
775	2.12652
776	3.0425
777	2.11646
778	2.24965
779	2.18269
780	2.12189
781	2.41533
782	2.09727
783	2.70482
784	2.26606
785	1.80292
786	2.5495
787	2.34546
788	3.19285
789	2.1325
790	2.17694
791	2.10768
792	2.04249
793	2.39531
794	2.02071
795	1.84873
796	1.99779
797	2.15059
798	2.06916
799	1.96928
800	2.03624
801	2.11824
802	2.16291
803	2.8282
804	1.88091
805	1.94356
806	2.21239
807	2.31065
808	2.2458
809	2.08776
810	2.41178
811	2.8205
812	3.30032
813	1.95924
814	2.24022
815	2.06612
816	1.92884
817	2.31971
818	1.89535
819	2.06138
820	1.89728
821	3.02587
822	2.43673
823	1.89222
824	2.10996
825	2.13742
826	2.29861
827	1.97757
828	1.9306
829	1.94717
830	2.02196
831	2.05477
832	1.99793
833	2.09341
834	1.94322
835	1.92391
836	1.92947
837	2.02662
838	2.19102
839	2.37106
840	2.63653
841	2.06544
842	2.43669
843	2.22658
844	2.12544
845	2.1257
846	1.97376
847	3.35552
848	2.08106
849	1.97584
850	1.80638
851	2.03201
852	2.09033
853	1.97139
854	2.03363
855	2.07112
856	2.28127
857	2.01641
858	1.88528
859	2.01811
860	2.08788
861	1.98307
862	2.39754
863	1.89829
864	1.71388
865	2.22434
866	2.22278
867	2.28059
868	1.74791
869	2.25865
870	2.1566
871	3.02716
872	4.3725
873	2.10625
874	1.89609
875	2.02894
876	2.64585
877	2.0537
878	1.65144
879	2.26599
880	2.17046
881	2.0884
882	2.1502
883	1.74369
884	2.46645
885	1.83041
886	2.30364
887	3.33968
888	2.36835
889	1.8685
890	2.18631
891	2.71582
892	4.4333
893	2.46763
894	2.60594
895	2.29459
896	2.18559
897	1.87099
898	2.04379
899	2.1509
900	2.602
901	4.82734
902	2.22546
903	1.8159
904	1.82278
905	2.21888
906	2.27453
907	2.05942
908	3.03161
909	2.12425
910	1.86372
911	1.82336
912	1.83166
913	2.09014
914	1.99858
915	2.06907
916	1.89405
917	1.87599
918	1.99982
919	2.03164
920	1.80766
921	2.17407
922	2.88545
923	2.31627
924	2.27735
925	1.95844
926	1.71305
927	1.91
928	1.99514
929	2.095
930	1.71397
931	1.93152
932	2.17588
933	1.92719
934	2.54268
935	2.04478
936	1.87569
937	1.77098
938	2.09894
939	2.47927
940	2.07736
941	1.8908
942	1.79789
943	2.06985
944	2.11503
945	3.92419
946	2.19593
947	2.45954
948	2.31293
949	2.14702
950	2.31227
951	2.20767
952	1.7862
953	1.87749
954	1.95174
955	2.20335
956	1.81197
957	1.95702
958	1.82752
959	1.75477
960	2.20147
961	2.01889
962	1.83992
963	2.38791
964	1.92333
965	1.74288
966	1.9675
967	1.8016
968	1.90501
969	2.90337
970	2.01746
971	2.46
972	1.95427
973	1.86874
974	2.05464
975	2.18319
976	2.29875
977	2.23358
978	3.76469
979	2.23562
980	2.23859
981	1.95336
982	2.31009
983	1.73865
984	3.04232
985	1.93111
986	2.29324
987	2.22879
988	2.38884
989	2.21851
990	1.97909
991	2.00223
992	2.6136
993	2.38803
994	2.66052
995	2.25077
996	1.93852
997	2.58203
998	2.03558
999	2.5659
1000	1.95897
