Data from 40_USB2G479881__0__16-34-00-400.txt Node

Date: Wed Feb 25 16:34:00 GMT 2026
User: Student
Spectrometer: USB2G47988
Scans to average: 250
Trigger mode: 4
Integration Time (sec): 2.000000E-2
Electric dark correction enabled: true
Boxcar width: 0
XAxis mode: Wavelengths
Number of Pixels in Spectrum: 651
>>>>>Begin Spectral Data<<<<<
350	-0.4498
351	-0.35158
352	0.34694
353	0.21225
354	0.2422
355	0.14837
356	0.3847
357	0.7333
358	0.88079
359	0.87551
360	1.0027
361	1.05685
362	1.62117
363	1.20613
364	1.50971
365	1.85396
366	1.79439
367	1.72015
368	2.26368
369	2.54194
370	2.29447
371	2.5936
372	2.57051
373	2.52016
374	2.43711
375	2.62465
376	2.60304
377	3.37388
378	3.30356
379	3.33949
380	3.09294
381	3.03126
382	3.71312
383	3.23804
384	4.18157
385	3.75956
386	4.25168
387	3.91532
388	4.13674
389	4.25407
390	3.95836
391	4.05157
392	4.02455
393	4.85246
394	4.53468
395	4.33142
396	4.1318
397	4.66777
398	5.20136
399	4.70723
400	4.88671
401	5.06994
402	4.68511
403	4.73495
404	4.71646
405	4.61909
406	5.74587
407	4.96107
408	5.27011
409	4.97145
410	5.29559
411	5.4319
412	5.09929
413	5.22986
414	5.38437
415	5.42121
416	5.369
417	5.38218
418	5.50142
419	5.27772
420	5.4004
421	5.76843
422	5.78394
423	5.36602
424	5.63068
425	7.06213
426	6.02237
427	5.53574
428	5.5466
429	6.28672
430	6.09767
431	6.57224
432	5.66237
433	6.1855
434	5.77259
435	5.56056
436	6.47898
437	5.85887
438	6.08748
439	6.72668
440	6.18773
441	5.72321
442	5.81269
443	6.0622
444	5.8731
445	5.29858
446	9.98788
447	5.73878
448	5.97435
449	5.93621
450	5.88565
451	5.39263
452	5.63583
453	5.80047
454	6.39802
455	5.82641
456	5.61021
457	5.76741
458	5.60097
459	5.87571
460	6.02025
461	5.48105
462	5.36913
463	5.6341
464	5.64549
465	5.71694
466	5.40771
467	5.47317
468	6.21417
469	5.63349
470	5.57016
471	5.25707
472	5.5115
473	5.41552
474	5.58843
475	5.50194
476	5.57856
477	5.87997
478	5.66932
479	5.7634
480	5.66211
481	6.14436
482	5.69737
483	5.42523
484	5.3078
485	5.16825
486	5.21831
487	5.28833
488	5.28461
489	6.05228
490	5.26967
491	5.34369
492	5.53995
493	5.41055
494	5.05322
495	5.35753
496	5.13801
497	5.48692
498	5.36972
499	5.21858
500	4.93089
501	5.48435
502	4.81846
503	5.10939
504	5.32663
505	5.30468
506	5.02786
507	5.10238
508	4.99743
509	7.50131
510	5.62628
511	4.67799
512	4.79465
513	5.13664
514	4.70534
515	5.06482
516	4.74906
517	4.72035
518	4.93456
519	4.58603
520	4.77886
521	4.55769
522	4.97011
523	5.11184
524	4.83054
525	6.52958
526	5.23697
527	4.8624
528	4.53093
529	4.84445
530	4.75483
531	4.55895
532	4.12704
533	4.45221
534	4.44846
535	4.89609
536	4.95177
537	5.87876
538	4.98667
539	4.4247
540	4.70159
541	4.27727
542	4.24004
543	4.20946
544	4.34239
545	4.17929
546	5.19078
547	4.41447
548	4.2716
549	4.11434
550	4.31084
551	3.76822
552	4.164
553	3.76024
554	3.79752
555	4.03893
556	4.15213
557	4.03577
558	4.41603
559	3.8605
560	3.77526
561	3.83392
562	4.12059
563	3.9285
564	4.15421
565	3.894
566	3.87911
567	3.89078
568	3.59467
569	4.01296
570	3.4084
571	3.48336
572	3.53646
573	3.93922
574	3.31795
575	3.64337
576	3.39856
577	3.60919
578	3.69045
579	3.44484
580	3.50714
581	3.46903
582	3.89628
583	3.60507
584	3.27356
585	3.98406
586	3.53804
587	3.34182
588	3.17684
589	3.21599
590	3.63993
591	3.25638
592	3.35026
593	3.41343
594	3.95273
595	3.29926
596	3.57689
597	3.92368
598	4.0581
599	3.25407
600	3.45074
601	3.78156
602	3.722
603	3.15481
604	3.27444
605	3.95545
606	3.29932
607	3.14955
608	3.31348
609	3.1584
610	3.02005
611	3.23812
612	2.98058
613	2.89997
614	4.39125
615	3.45561
616	3.31495
617	3.27325
618	3.10161
619	3.12731
620	2.97094
621	2.76813
622	2.97283
623	2.83809
624	2.80481
625	3.06035
626	2.95435
627	3.30749
628	3.64968
629	3.33969
630	3.21329
631	3.16188
632	4.78307
633	3.33232
634	3.61713
635	2.78598
636	3.27346
637	2.81476
638	2.61372
639	3.09874
640	3.706
641	3.06024
642	3.14839
643	3.38683
644	3.30946
645	4.27462
646	5.42036
647	4.11691
648	4.26407
649	4.17596
650	4.89664
651	4.90557
652	5.7072
653	8.30337
654	17.11262
655	316.4612
656	135.27494
657	33.11289
658	10.39566
659	6.25035
660	4.84393
661	3.80006
662	3.49541
663	3.88068
664	3.20693
665	3.11093
666	3.00039
667	2.68784
668	3.17189
669	2.79883
670	2.88304
671	2.86972
672	2.87417
673	2.86421
674	2.74467
675	3.74114
676	2.72269
677	3.18528
678	3.22286
679	3.15649
680	2.56639
681	2.58966
682	2.81459
683	2.32529
684	2.83979
685	3.5644
686	2.45933
687	2.40662
688	2.52281
689	2.40602
690	2.93723
691	2.71913
692	2.15727
693	2.54022
694	2.31805
695	2.87294
696	2.33787
697	2.29934
698	2.25616
699	2.51054
700	2.16301
701	1.95785
702	2.40529
703	2.31808
704	2.44768
705	2.81378
706	2.12146
707	2.14753
708	2.02957
709	1.87275
710	1.8761
711	2.73933
712	2.13365
713	2.86811
714	2.11221
715	7.99222
716	2.65486
717	2.31151
718	2.3556
719	2.66284
720	2.03879
721	1.84679
722	2.03204
723	2.24702
724	2.37366
725	2.53192
726	2.37484
727	2.10758
728	2.10754
729	2.15649
730	3.48167
731	2.61674
732	1.92231
733	2.1325
734	2.03808
735	2.38306
736	2.19769
737	2.86086
738	2.36384
739	2.42246
740	2.23406
741	3.59721
742	2.38667
743	2.88915
744	2.43728
745	2.31954
746	2.24463
747	2.40975
748	2.47282
749	2.43876
750	2.223
751	2.35764
752	2.10645
753	2.41297
754	2.02571
755	2.14248
756	2.12204
757	3.13131
758	3.40757
759	3.2324
760	2.3372
761	2.02394
762	4.22671
763	2.53791
764	2.01828
765	2.57651
766	2.39807
767	3.03574
768	2.00418
769	2.03519
770	1.86403
771	2.22048
772	2.43559
773	1.87152
774	2.3041
775	2.20769
776	2.78196
777	2.12177
778	2.43506
779	2.01702
780	2.17284
781	2.35175
782	2.01929
783	2.70821
784	2.42608
785	2.10089
786	2.14896
787	2.03343
788	3.46989
789	2.2241
790	1.74289
791	2.0589
792	1.96914
793	2.16127
794	2.07068
795	2.23287
796	1.95291
797	1.96525
798	1.67874
799	2.01104
800	1.8776
801	2.11592
802	1.85012
803	2.92918
804	1.91043
805	1.92563
806	2.44412
807	2.31709
808	2.30678
809	2.16734
810	2.75486
811	2.75049
812	3.23454
813	1.91447
814	1.76326
815	2.36501
816	1.99322
817	2.29666
818	1.82738
819	1.98202
820	1.85921
821	3.12422
822	2.35561
823	1.85363
824	2.19438
825	2.05892
826	1.8086
827	1.85049
828	1.60248
829	1.90157
830	2.00298
831	1.94158
832	1.89047
833	2.2271
834	1.9774
835	2.06592
836	1.97471
837	1.58735
838	1.9335
839	1.72442
840	2.55272
841	2.18476
842	2.25034
843	2.08061
844	2.15447
845	1.92715
846	1.85628
847	2.52922
848	1.78931
849	1.74684
850	2.04174
851	1.85991
852	2.01826
853	1.84189
854	1.90494
855	1.66084
856	2.21239
857	1.66123
858	1.77525
859	1.99665
860	2.03641
861	2.27468
862	2.52731
863	1.76898
864	1.42625
865	2.10392
866	2.53107
867	2.12415
868	1.7475
869	2.37122
870	2.30866
871	2.7122
872	4.5202
873	2.11779
874	1.91229
875	2.12826
876	2.64804
877	1.82288
878	1.79893
879	2.21741
880	2.09153
881	2.32202
882	2.21909
883	1.73065
884	2.13935
885	1.93969
886	1.99595
887	2.99468
888	1.92415
889	1.63265
890	1.87761
891	2.70506
892	4.26548
893	2.31154
894	2.83446
895	2.1925
896	2.05329
897	1.5988
898	1.85612
899	1.85383
900	2.64125
901	4.81748
902	1.84549
903	2.04085
904	1.7185
905	1.91723
906	1.94318
907	1.58228
908	2.83639
909	2.08075
910	1.87197
911	1.88074
912	1.97448
913	1.95975
914	1.98286
915	1.96975
916	1.77072
917	2.15368
918	1.72479
919	2.00068
920	1.80251
921	2.61211
922	2.80155
923	2.186
924	2.19188
925	1.93103
926	1.81732
927	2.0405
928	1.59638
929	2.1011
930	2.15436
931	2.19398
932	2.11194
933	2.06835
934	2.25791
935	2.02329
936	1.86464
937	1.72258
938	2.15743
939	2.025
940	2.02821
941	1.85411
942	1.78269
943	1.97722
944	2.09298
945	3.75707
946	1.60069
947	2.56555
948	2.28063
949	1.98108
950	2.26223
951	2.04329
952	1.69007
953	1.83908
954	2.06781
955	1.86954
956	1.99444
957	1.85709
958	1.82225
959	2.1969
960	1.98183
961	1.93147
962	1.5953
963	2.24192
964	1.8501
965	1.64476
966	1.66091
967	1.75217
968	1.92932
969	2.65652
970	1.7807
971	2.01941
972	1.6608
973	1.88782
974	2.72891
975	1.794
976	2.063
977	1.98183
978	3.87511
979	2.2258
980	2.17289
981	2.0073
982	2.28645
983	1.95113
984	2.9947
985	2.22503
986	2.52091
987	1.79697
988	2.22165
989	1.89131
990	1.87855
991	1.52653
992	2.53476
993	1.98585
994	2.5171
995	1.70204
996	1.98145
997	2.4612
998	2.43276
999	2.51171
1000	2.00945
