Data from 16_USB2G479881__0__15-49-44-917.txt Node

Date: Tue Feb 24 15:49:44 GMT 2026
User: Student
Spectrometer: USB2G47988
Scans to average: 10
Trigger mode: 4
Integration Time (sec): 6.000000E-1
Electric dark correction enabled: true
Boxcar width: 0
XAxis mode: Wavelengths
Number of Pixels in Spectrum: 651
>>>>>Begin Spectral Data<<<<<
350	0.02911
351	-0.05545
352	0.95434
353	-1.3353
354	0.40729
355	0.87816
356	-0.80765
357	0.80788
358	-2.04327
359	-1.8647
360	0.27771
361	8.06474
362	8.63574
363	-0.64302
364	-2.10212
365	8.85492
366	8.6249
367	3.06581
368	12.71558
369	7.02537
370	0.01046
371	7.81898
372	4.30687
373	2.33893
374	2.50847
375	3.82012
376	0.57763
377	21.62031
378	4.72314
379	2.31583
380	3.88266
381	3.344
382	11.59215
383	-3.90878
384	14.46859
385	4.2571
386	10.1377
387	5.19281
388	17.4169
389	9.28913
390	1.39425
391	3.14766
392	0.97756
393	15.2464
394	13.24746
395	1.38033
396	-0.31676
397	24.1016
398	17.22382
399	8.21369
400	10.29283
401	13.66735
402	6.73028
403	5.7017
404	2.65055
405	1.34311
406	25.64836
407	2.07512
408	5.68672
409	2.68902
410	10.92623
411	2.74271
412	1.72937
413	2.86115
414	4.25745
415	2.23473
416	3.60231
417	4.34124
418	5.90379
419	3.77193
420	3.5308
421	9.23902
422	14.02674
423	4.65994
424	6.45577
425	90.77297
426	9.34876
427	2.1181
428	3.07119
429	27.73215
430	13.04496
431	9.06805
432	3.33745
433	11.11251
434	2.69168
435	1.67593
436	20.17527
437	6.25795
438	15.41585
439	52.62071
440	10.29203
441	3.88949
442	6.50311
443	18.90049
444	7.75371
445	-12.62491
446	7.05044
447	5.31994
448	10.96687
449	17.91259
450	11.10937
451	15.175
452	12.81162
453	17.14657
454	27.87478
455	21.82364
456	27.435
457	27.58002
458	23.88804
459	35.39637
460	27.75375
461	24.49549
462	23.71892
463	24.07322
464	22.35833
465	24.11146
466	19.36069
467	23.20728
468	30.59471
469	23.67094
470	21.88701
471	18.45349
472	19.46934
473	23.66743
474	21.17222
475	19.17706
476	19.87825
477	23.17504
478	24.50989
479	27.73396
480	16.02729
481	21.58416
482	18.96573
483	15.22369
484	12.66094
485	13.67462
486	16.07672
487	15.54388
488	14.6983
489	44.94293
490	14.65356
491	11.87356
492	24.53833
493	12.15926
494	12.05092
495	14.65405
496	9.84025
497	20.79317
498	27.29637
499	12.88368
500	10.03334
501	21.84045
502	11.74125
503	11.84368
504	26.78968
505	16.05178
506	14.18281
507	13.92165
508	13.91104
509	3.32378
510	37.2539
511	17.88766
512	17.0886
513	30.3022
514	24.30868
515	24.28078
516	26.0765
517	19.78711
518	25.69558
519	26.23041
520	47.35464
521	28.72587
522	34.71684
523	35.02614
524	37.02211
525	144.33917
526	41.09501
527	54.21771
528	38.71339
529	64.34878
530	43.29307
531	40.97186
532	39.00218
533	53.16318
534	37.68361
535	46.85263
536	72.73025
537	77.4652
538	40.30657
539	42.61396
540	44.49458
541	41.3153
542	38.38492
543	40.21989
544	40.84958
545	43.10385
546	114.55423
547	38.31158
548	39.83983
549	45.14658
550	44.32386
551	33.5795
552	33.50853
553	30.26003
554	31.67911
555	42.39667
556	36.81647
557	29.76273
558	39.42793
559	29.94598
560	27.60555
561	31.03725
562	26.87393
563	31.75809
564	29.26589
565	24.61061
566	28.04313
567	24.73934
568	22.31997
569	26.36286
570	19.47682
571	21.2772
572	20.62829
573	18.89396
574	18.14142
575	19.02586
576	17.97534
577	22.43601
578	19.40566
579	16.08652
580	19.62799
581	16.81671
582	44.17857
583	19.6247
584	12.74172
585	23.11218
586	15.65932
587	19.36426
588	15.6419
589	15.47068
590	23.27819
591	18.75073
592	24.81915
593	19.14806
594	32.22197
595	22.49492
596	27.47537
597	45.30807
598	42.78532
599	23.92246
600	38.54832
601	30.39963
602	51.48446
603	29.83306
604	33.87366
605	51.483
606	30.91778
607	27.22159
608	41.2224
609	39.22196
610	32.52906
611	33.84897
612	32.1288
613	34.97754
614	146.92182
615	42.42775
616	33.13264
617	48.3612
618	40.65163
619	36.11521
620	38.71926
621	39.43931
622	39.74017
623	42.77791
624	41.74341
625	44.70648
626	47.10826
627	53.73742
628	60.57601
629	64.3545
630	47.96858
631	59.32139
632	176.84036
633	64.50444
634	81.34391
635	60.97778
636	62.70628
637	71.34142
638	73.35358
639	79.14877
640	85.76089
641	87.89512
642	111.11525
643	104.52416
644	129.48981
645	243.44801
646	159.75256
647	197.97415
648	203.55015
649	215.81153
650	305.11182
651	404.04233
652	724.25939
653	1316.24534
654	2574.39026
655	3416.57435
656	1088.62467
657	373.3222
658	224.2728
659	213.67923
660	156.88657
661	119.18076
662	102.10698
663	167.03237
664	89.05529
665	85.83985
666	84.58132
667	80.72785
668	71.87222
669	69.37441
670	64.12377
671	69.64773
672	52.2104
673	61.69441
674	61.49998
675	52.98787
676	59.78428
677	47.85546
678	58.06641
679	37.49964
680	36.14134
681	32.47751
682	52.45319
683	24.25567
684	42.47929
685	73.89487
686	22.03194
687	22.99859
688	23.96627
689	22.38694
690	33.93678
691	17.22587
692	16.11128
693	23.02304
694	19.01878
695	25.08827
696	14.152
697	10.06594
698	11.36016
699	14.58085
700	10.76844
701	12.72914
702	14.10319
703	9.89691
704	13.11254
705	32.84422
706	9.50145
707	7.70868
708	9.64746
709	7.74454
710	8.20584
711	17.14067
712	8.83728
713	32.86457
714	-12.75041
715	-30.61034
716	11.70412
717	7.14495
718	5.41376
719	18.52121
720	5.64087
721	5.88388
722	5.38652
723	8.0264
724	5.42471
725	9.86827
726	7.04313
727	12.91557
728	4.73909
729	1.34226
730	95.8268
731	10.63783
732	6.18649
733	4.33993
734	4.25269
735	17.29713
736	10.05334
737	18.88885
738	7.4518
739	9.02786
740	3.35617
741	60.77417
742	4.27046
743	19.03135
744	14.69016
745	2.95084
746	15.58774
747	10.21956
748	23.59333
749	7.07188
750	4.5043
751	8.08135
752	3.56884
753	3.40345
754	-0.53519
755	16.22382
756	3.02078
757	51.19136
758	31.85146
759	27.03755
760	3.52615
761	4.70927
762	35.24342
763	0.47219
764	1.78124
765	29.67386
766	6.96131
767	31.21444
768	2.12126
769	6.00084
770	0.63942
771	1.54706
772	6.09095
773	-1.90933
774	4.0699
775	-1.24257
776	42.80118
777	2.7467
778	5.59332
779	1.01035
780	2.9155
781	3.2278
782	-0.73557
783	11.79072
784	9.14739
785	-0.83656
786	11.07417
787	0.743
788	16.56256
789	0.36492
790	0.42029
791	-1.29111
792	0.62148
793	2.58535
794	-0.87944
795	1.91807
796	0.89584
797	2.74078
798	-0.61071
799	2.14641
800	4.38774
801	0.96256
802	1.48786
803	26.49084
804	1.10304
805	-0.61499
806	3.12723
807	3.68834
808	4.16905
809	2.05825
810	12.63871
811	41.38634
812	25.43969
813	-0.46878
814	3.60256
815	3.13944
816	0.30972
817	11.93047
818	3.57988
819	-1.16667
820	-0.02535
821	61.63553
822	2.67974
823	-2.01891
824	5.6305
825	-1.90315
826	2.39765
827	-2.45689
828	2.02798
829	-1.17298
830	5.2638
831	3.6762
832	-2.1473
833	4.59901
834	-1.60859
835	7.62263
836	-0.67783
837	-1.90604
838	1.02883
839	2.47091
840	24.12852
841	1.34671
842	4.12706
843	-0.07184
844	3.69548
845	-2.04951
846	-8.80195
847	-3.34696
848	2.13289
849	-2.92872
850	0.90237
851	-0.89892
852	-2.25747
853	-0.81549
854	-1.82886
855	-2.88551
856	9.1708
857	-0.15961
858	-1.30528
859	-0.38734
860	-0.73311
861	0.27522
862	7.12129
863	-0.1967
864	-1.26459
865	4.99836
866	14.84987
867	2.90223
868	-0.5836
869	8.71573
870	2.76582
871	16.85581
872	6.50441
873	-2.88244
874	0.30964
875	5.1667
876	12.19603
877	0.56023
878	-5.12942
879	14.89195
880	5.60408
881	1.37072
882	5.44567
883	-1.07347
884	6.74149
885	-4.50963
886	-15.2085
887	-0.02385
888	5.07836
889	-3.30227
890	-0.53488
891	63.51586
892	38.51293
893	6.72868
894	30.98704
895	3.78485
896	2.68778
897	-1.66021
898	-0.68365
899	-1.58683
900	10.95535
901	106.56738
902	-0.5548
903	-2.53525
904	-1.57927
905	0.41122
906	1.46864
907	-2.78801
908	45.41421
909	5.78717
910	-3.92935
911	-2.15441
912	-0.89068
913	0.08064
914	-0.26275
915	0.54796
916	-1.04567
917	1.40258
918	0.13474
919	-1.33906
920	-7.67034
921	6.6549
922	5.07321
923	6.04468
924	1.98153
925	1.18325
926	-3.72162
927	3.78782
928	-2.26594
929	1.12325
930	-1.78009
931	-0.72931
932	1.26339
933	1.17465
934	3.12994
935	2.14233
936	-2.39297
937	-0.12823
938	4.79406
939	16.47355
940	-0.92947
941	-1.60665
942	-1.60456
943	-1.51573
944	1.74286
945	13.99788
946	-5.84427
947	1.58645
948	5.40026
949	0.5027
950	15.05272
951	3.00809
952	-1.48123
953	-0.72061
954	2.33887
955	1.46993
956	-2.0461
957	-2.64581
958	4.2003
959	-0.35192
960	-1.55864
961	-4.87153
962	-4.63936
963	4.31969
964	-1.52923
965	-2.11785
966	-4.14464
967	-3.43847
968	-1.84967
969	15.01992
970	-3.80797
971	4.44455
972	-3.25649
973	2.75731
974	7.94158
975	-1.44079
976	5.51953
977	5.28474
978	66.37641
979	1.20779
980	0.11433
981	0.97003
982	5.36286
983	-2.57608
984	23.70101
985	-2.99541
986	8.77925
987	-2.19604
988	12.93506
989	2.00097
990	-4.44762
991	-1.68235
992	22.71161
993	-1.94128
994	1.86757
995	-3.89364
996	-0.96352
997	9.51747
998	4.6397
999	17.79891
1000	-2.00071
