Data from 41_USB2G479881__0__16-11-39-203.txt Node

Date: Tue Feb 24 16:11:39 GMT 2026
User: Student
Spectrometer: USB2G47988
Scans to average: 10
Trigger mode: 4
Integration Time (sec): 6.000000E-1
Electric dark correction enabled: true
Boxcar width: 0
XAxis mode: Wavelengths
Number of Pixels in Spectrum: 651
>>>>>Begin Spectral Data<<<<<
350	0.28228
351	0.26161
352	2.14754
353	-2.98371
354	0.29229
355	-0.0835
356	-2.09667
357	-0.78223
358	-1.69994
359	-3.55246
360	-0.5223
361	8.09218
362	7.81605
363	-2.54976
364	-3.72593
365	8.74192
366	7.99437
367	2.20791
368	12.13997
369	5.97172
370	-0.28172
371	7.56165
372	2.28512
373	1.59764
374	0.87656
375	0.47328
376	0.12019
377	21.34405
378	4.73078
379	1.70897
380	3.8288
381	2.24518
382	11.83605
383	-2.52142
384	14.88748
385	2.92176
386	11.38803
387	2.9271
388	16.02756
389	8.41316
390	-0.10697
391	2.95305
392	2.00064
393	16.15564
394	11.79109
395	1.99841
396	0.30518
397	23.5583
398	16.94831
399	6.60063
400	7.88186
401	12.83269
402	4.43686
403	4.57105
404	1.43232
405	-0.00591
406	22.1612
407	1.33176
408	6.3228
409	2.44155
410	8.76907
411	3.3684
412	5.03489
413	1.81222
414	1.50351
415	1.91292
416	3.11514
417	2.26674
418	5.09915
419	2.04802
420	2.92443
421	8.07181
422	14.88324
423	3.45155
424	5.84572
425	92.06811
426	8.21288
427	2.7119
428	2.43337
429	29.66306
430	12.27766
431	10.13202
432	1.94558
433	9.43227
434	3.82182
435	1.78961
436	20.46677
437	5.99271
438	13.70596
439	52.59757
440	8.72015
441	1.51084
442	5.08367
443	17.24923
444	4.47713
445	-17.11663
446	4.1835
447	0.80729
448	7.25461
449	9.99194
450	3.98435
451	4.37591
452	2.23828
453	5.706
454	18.76513
455	2.94785
456	5.77797
457	4.63513
458	1.17404
459	10.56406
460	5.08743
461	1.80826
462	3.60535
463	3.14588
464	3.179
465	2.6041
466	2.34002
467	5.26031
468	16.63374
469	7.84285
470	3.35077
471	-0.20983
472	0.60577
473	5.55692
474	4.47046
475	0.50917
476	1.64287
477	4.16934
478	7.95492
479	9.45341
480	0.75229
481	10.23195
482	4.65797
483	3.80824
484	1.65861
485	-0.25433
486	5.38968
487	2.17648
488	3.46863
489	33.2209
490	5.15145
491	1.76491
492	13.44696
493	1.06732
494	-0.44393
495	3.18958
496	0.9909
497	11.28512
498	15.80339
499	4.80072
500	-0.21325
501	11.59645
502	1.82406
503	1.87532
504	13.1167
505	4.4578
506	-1.4454
507	1.42837
508	0.95734
509	-8.43751
510	21.57763
511	1.01029
512	1.04486
513	13.56826
514	3.69745
515	2.33298
516	2.38432
517	-2.00091
518	5.89736
519	-0.31351
520	15.65705
521	1.20286
522	10.90997
523	4.43135
524	3.218
525	107.57096
526	13.38615
527	14.94012
528	4.65189
529	26.33087
530	6.69991
531	4.11121
532	1.65853
533	12.19224
534	1.48394
535	12.85165
536	22.12705
537	43.89695
538	4.75457
539	4.04792
540	4.01549
541	1.73449
542	1.65131
543	4.19147
544	2.91148
545	5.29967
546	60.1385
547	3.56442
548	6.91489
549	8.43725
550	9.25507
551	1.78999
552	2.1999
553	-0.4371
554	2.04865
555	8.49681
556	8.58107
557	2.04896
558	12.22492
559	6.5082
560	0.94294
561	2.03817
562	2.92789
563	5.06239
564	6.97209
565	2.32792
566	3.43996
567	3.48361
568	0.41366
569	8.78868
570	2.06779
571	0.27049
572	0.31827
573	0.736
574	-0.87736
575	3.59299
576	-0.12432
577	3.48271
578	1.23653
579	-0.99724
580	0.73966
581	3.32175
582	20.89231
583	2.06402
584	-2.00504
585	11.4154
586	0.33437
587	2.14827
588	-1.28722
589	-0.79544
590	8.25878
591	-0.287
592	2.91651
593	0.0376
594	14.4293
595	1.38597
596	7.99897
597	19.34312
598	20.67481
599	0.81632
600	9.28957
601	9.59959
602	22.35928
603	3.25156
604	7.06686
605	24.25026
606	1.27095
607	1.31917
608	8.55182
609	6.92557
610	3.57415
611	0.66586
612	-0.75044
613	2.90913
614	100.40088
615	8.61274
616	0.16211
617	9.27271
618	4.32212
619	0.88244
620	2.86107
621	3.34736
622	1.91912
623	3.31278
624	0.51546
625	2.7134
626	2.27816
627	8.34081
628	15.59294
629	13.80956
630	2.28608
631	7.13564
632	99.19332
633	9.0282
634	15.13878
635	2.76294
636	1.3831
637	5.53268
638	3.91681
639	5.90379
640	15.422
641	5.62045
642	7.08351
643	6.68887
644	5.39027
645	103.84237
646	3.91856
647	13.50255
648	16.74644
649	9.44143
650	20.28721
651	18.15517
652	19.72675
653	38.66816
654	114.97415
655	672.76915
656	674.87835
657	110.92236
658	52.95128
659	51.77597
660	21.10672
661	10.99745
662	7.34753
663	42.59622
664	4.55361
665	4.75592
666	3.93812
667	5.63221
668	4.99966
669	4.28373
670	3.75009
671	5.11702
672	2.98809
673	5.57021
674	2.19
675	21.43555
676	14.29052
677	11.68593
678	24.37747
679	10.32911
680	3.43628
681	5.96959
682	19.40542
683	2.20313
684	15.30307
685	46.22769
686	3.046
687	1.31404
688	2.40216
689	-1.08584
690	14.3425
691	0.61118
692	-1.58311
693	6.76467
694	0.9693
695	11.37359
696	1.68025
697	-0.71302
698	-1.6576
699	3.26416
700	-1.20015
701	0.32761
702	0.99908
703	-2.31814
704	2.20832
705	18.44489
706	0.1833
707	-1.24824
708	0.63444
709	-2.75839
710	-1.67576
711	11.07933
712	1.27672
713	24.42371
714	-17.9158
715	-27.11029
716	3.76042
717	1.75074
718	0.29295
719	14.45167
720	0.74417
721	-1.12687
722	0.4438
723	5.33064
724	-1.70607
725	5.20203
726	2.26794
727	3.79104
728	-0.01614
729	-1.14087
730	88.9543
731	6.36487
732	4.27234
733	1.20377
734	-2.41937
735	9.98151
736	5.57525
737	13.53676
738	1.19736
739	6.63167
740	-0.6089
741	58.41803
742	-0.22247
743	16.8824
744	10.86957
745	-0.62568
746	10.3475
747	7.43726
748	21.89149
749	5.78316
750	2.20071
751	3.24081
752	0.80847
753	2.85126
754	-2.91337
755	12.67272
756	1.81226
757	44.74124
758	30.61038
759	25.10125
760	0.63324
761	2.10599
762	122.72941
763	-0.78081
764	0.21912
765	17.41777
766	4.23497
767	30.94039
768	-0.13632
769	2.24451
770	-2.46679
771	0.15861
772	3.93327
773	-3.6324
774	0.42421
775	-3.75069
776	42.99674
777	2.04324
778	2.3084
779	-1.63013
780	3.162
781	4.02272
782	-1.38558
783	10.27276
784	7.90045
785	-1.23758
786	10.1332
787	1.62962
788	17.35316
789	-0.82041
790	0.90854
791	-2.63907
792	-0.60775
793	1.7744
794	0.30799
795	0.37844
796	0.87432
797	2.83169
798	-0.88168
799	3.7334
800	3.61472
801	-1.60942
802	-0.42091
803	26.36184
804	-1.78675
805	-1.81589
806	3.74412
807	4.11335
808	4.34904
809	2.12749
810	11.78307
811	39.03617
812	25.71171
813	0.45226
814	3.26193
815	3.20681
816	1.19301
817	11.89642
818	2.08819
819	0.44914
820	-0.57934
821	64.93936
822	5.18885
823	-2.05736
824	4.31777
825	0.40602
826	1.38005
827	-2.15508
828	1.56868
829	-0.04698
830	3.6424
831	2.45021
832	-3.12371
833	5.78729
834	-1.4759
835	6.21777
836	-0.77786
837	-2.14148
838	1.38555
839	3.22937
840	23.57363
841	3.93648
842	4.22155
843	1.91023
844	3.29864
845	-1.44531
846	-7.25769
847	-1.94831
848	4.02965
849	-1.93495
850	2.18509
851	-2.07265
852	-1.66331
853	-1.26693
854	-2.87688
855	-2.54469
856	10.43221
857	0.81639
858	-1.25892
859	-0.06491
860	-0.46175
861	1.17746
862	9.00121
863	-0.5737
864	-1.92093
865	6.4198
866	15.02943
867	6.24337
868	-1.99176
869	10.79789
870	2.6936
871	17.26023
872	8.92229
873	-2.72111
874	1.91451
875	3.35614
876	12.50943
877	0.57328
878	-3.19432
879	14.48384
880	6.72003
881	1.37666
882	6.85146
883	0.05634
884	7.75845
885	-4.12354
886	-10.59765
887	2.35915
888	4.50753
889	-0.67639
890	2.18107
891	65.33535
892	41.5582
893	7.77191
894	33.15862
895	7.57275
896	2.95866
897	-1.48508
898	2.35364
899	0.55637
900	14.95058
901	113.79547
902	-1.08015
903	-0.39311
904	-0.54952
905	1.82917
906	4.41071
907	-2.63381
908	46.35458
909	7.6155
910	-2.71687
911	-0.51969
912	-0.61535
913	0.15066
914	1.41224
915	1.6066
916	-1.06147
917	3.26519
918	0.72357
919	-0.70278
920	-5.6838
921	8.91922
922	7.16755
923	6.52977
924	2.72012
925	2.46322
926	-1.03298
927	5.72307
928	-1.01339
929	2.75505
930	-0.77679
931	-0.76079
932	1.87271
933	1.83387
934	6.1541
935	4.21431
936	-0.98474
937	0.6796
938	5.12608
939	16.2255
940	-0.14709
941	-0.40328
942	-1.10973
943	0.30066
944	1.87373
945	14.73729
946	-3.52828
947	12.16454
948	7.75889
949	2.84253
950	16.11361
951	4.20146
952	-0.85853
953	-0.0538
954	3.72648
955	-0.80043
956	0.70485
957	-0.13941
958	2.91433
959	1.22358
960	0.28978
961	-1.77687
962	-3.30198
963	6.60047
964	0.85893
965	0.81624
966	-1.56407
967	-2.61328
968	-0.50001
969	15.96148
970	-1.33828
971	6.82438
972	-3.25422
973	6.34544
974	9.74228
975	-1.20263
976	6.32715
977	4.42618
978	76.53273
979	3.866
980	3.40092
981	3.22143
982	8.07911
983	-0.12882
984	26.37395
985	-2.17331
986	9.03062
987	1.34102
988	14.20558
989	2.75337
990	-1.13943
991	-0.63877
992	21.28005
993	-1.62907
994	3.96078
995	-2.52549
996	2.19971
997	12.3416
998	6.8709
999	22.85696
1000	-0.59191
