Data from 42_USB2G479881__0__16-12-40-556.txt Node

Date: Tue Feb 24 16:12:40 GMT 2026
User: Student
Spectrometer: USB2G47988
Scans to average: 10
Trigger mode: 4
Integration Time (sec): 6.000000E-1
Electric dark correction enabled: true
Boxcar width: 0
XAxis mode: Wavelengths
Number of Pixels in Spectrum: 651
>>>>>Begin Spectral Data<<<<<
350	0.66374
351	1.34037
352	1.38495
353	-2.49158
354	-0.89748
355	-0.37689
356	-1.89987
357	-1.72377
358	-2.10797
359	-2.47445
360	-1.35149
361	7.28737
362	7.74995
363	-2.51876
364	-3.96801
365	9.80591
366	5.93115
367	1.92256
368	13.67252
369	6.36866
370	1.01391
371	7.4316
372	2.26491
373	0.37828
374	1.56411
375	1.3184
376	-0.1971
377	20.27263
378	4.1938
379	0.88106
380	3.71576
381	2.79092
382	11.26451
383	-1.4935
384	13.32882
385	3.81271
386	8.92497
387	5.13593
388	16.92637
389	10.50908
390	-0.66282
391	1.94235
392	2.53843
393	14.59021
394	11.93546
395	0.84576
396	-1.21534
397	23.01292
398	16.95175
399	6.28987
400	7.21366
401	13.56809
402	5.73451
403	3.70133
404	-0.57774
405	2.09588
406	25.00808
407	1.07174
408	7.1531
409	1.54838
410	9.04771
411	3.90302
412	2.87769
413	1.27681
414	-0.25237
415	0.88727
416	3.93568
417	3.8539
418	3.17136
419	-0.28783
420	2.61542
421	8.10256
422	13.1973
423	3.5874
424	4.91545
425	89.2462
426	8.07847
427	1.78631
428	0.18486
429	39.50406
430	14.26813
431	9.916
432	0.64887
433	11.43185
434	2.05113
435	-0.36872
436	20.179
437	6.37871
438	14.18567
439	52.65137
440	8.21982
441	1.57551
442	4.58477
443	18.01008
444	3.09522
445	-17.87176
446	6.49045
447	1.49068
448	6.80123
449	9.51142
450	3.76798
451	3.73219
452	1.77404
453	5.67597
454	17.76434
455	3.85743
456	6.17972
457	4.58516
458	0.0583
459	9.05239
460	4.22558
461	1.09955
462	3.33037
463	3.19921
464	2.00909
465	3.10598
466	1.14577
467	5.83505
468	16.94929
469	7.33355
470	4.27004
471	-0.02245
472	-0.43434
473	6.73238
474	5.27455
475	2.02297
476	1.28979
477	6.48922
478	6.74292
479	10.06669
480	1.85907
481	8.62089
482	5.82625
483	1.691
484	0.53973
485	-0.67947
486	5.10031
487	2.44998
488	4.11301
489	33.19957
490	5.93165
491	-0.2123
492	13.40574
493	1.27516
494	1.44532
495	2.91453
496	2.17652
497	11.26859
498	15.6873
499	3.42252
500	1.72404
501	11.83715
502	1.58737
503	0.68705
504	13.76509
505	3.87988
506	-0.27642
507	-0.61251
508	-0.19029
509	-7.49264
510	21.22065
511	-0.19475
512	-0.85363
513	10.62509
514	3.80705
515	3.65973
516	2.69637
517	-0.75738
518	6.38937
519	0.11746
520	16.44562
521	2.88618
522	9.93814
523	2.92073
524	3.42198
525	106.53377
526	12.43362
527	14.74815
528	5.54681
529	25.50031
530	6.1661
531	2.18895
532	1.54361
533	9.91418
534	1.84425
535	12.70661
536	21.738
537	45.52807
538	3.42273
539	3.58808
540	4.2669
541	1.18249
542	2.96324
543	2.71668
544	3.01405
545	4.45855
546	54.99773
547	2.63571
548	6.58225
549	8.608
550	10.80624
551	1.55251
552	1.05043
553	-1.46059
554	1.06605
555	9.50408
556	4.96352
557	2.56373
558	12.31763
559	4.98636
560	0.55125
561	3.47821
562	1.56755
563	5.16793
564	7.57694
565	0.04763
566	2.41404
567	2.33919
568	0.03296
569	6.46528
570	-0.62937
571	-0.60022
572	1.36048
573	-0.63472
574	-0.86712
575	1.47622
576	-0.77405
577	2.15194
578	1.88018
579	-0.3402
580	1.66061
581	1.70154
582	19.52837
583	1.84692
584	-4.49907
585	10.46106
586	1.48741
587	2.31307
588	-1.38521
589	-0.61142
590	6.81581
591	-0.59912
592	0.58834
593	-0.19552
594	15.677
595	-0.23755
596	5.67343
597	17.58997
598	20.3568
599	-0.19408
600	8.47432
601	9.63116
602	21.78714
603	1.53437
604	5.47736
605	24.28211
606	2.36261
607	0.02102
608	7.33271
609	6.93838
610	2.4516
611	-0.97886
612	-0.26855
613	3.36041
614	102.61058
615	7.67574
616	1.18597
617	7.86085
618	4.04818
619	1.61312
620	2.40455
621	2.11742
622	0.07307
623	2.51382
624	0.5976
625	2.71308
626	3.49843
627	7.31468
628	16.33158
629	11.55399
630	2.75946
631	7.91235
632	99.08203
633	6.77994
634	13.67733
635	3.24985
636	2.09132
637	4.71631
638	1.53634
639	3.1636
640	15.38158
641	2.20226
642	5.86095
643	5.5592
644	3.93994
645	104.32598
646	3.88458
647	12.9063
648	14.05127
649	8.10491
650	17.85223
651	14.45259
652	17.17078
653	36.7571
654	94.64667
655	650.36645
656	655.48605
657	97.61094
658	44.85098
659	48.24511
660	21.57956
661	9.46261
662	5.45143
663	42.16417
664	6.06922
665	5.42444
666	3.679
667	2.54196
668	1.88688
669	4.0224
670	1.81374
671	5.14524
672	0.79276
673	4.58714
674	0.8304
675	20.49907
676	13.23219
677	10.86464
678	24.46146
679	8.88418
680	2.0386
681	4.93248
682	17.0491
683	0.93
684	14.11406
685	46.3097
686	0.97592
687	0.93468
688	1.34249
689	0.26719
690	13.71563
691	0.08904
692	-1.71214
693	6.83887
694	-0.82795
695	11.44895
696	0.91365
697	-2.13215
698	-2.46647
699	3.56954
700	-2.72115
701	-0.49431
702	1.28852
703	-1.32632
704	1.18327
705	20.11829
706	-0.90905
707	-0.48512
708	0.63444
709	-2.68723
710	-3.7498
711	11.37724
712	0.85143
713	22.62371
714	-21.68577
715	-36.29188
716	3.4697
717	0.71304
718	-1.07351
719	15.81855
720	0.11779
721	-1.42263
722	-2.71509
723	4.17821
724	-2.62487
725	4.78052
726	0.90513
727	5.03221
728	-2.36747
729	-4.72325
730	87.31818
731	6.74547
732	1.43756
733	0.43752
734	-1.07999
735	11.7546
736	8.03078
737	14.05452
738	0.30045
739	7.19525
740	-0.2556
741	58.10201
742	0.32428
743	15.2277
744	10.84693
745	-0.26407
746	10.46019
747	8.3602
748	20.09173
749	6.38993
750	2.75463
751	4.62569
752	0.39094
753	2.90951
754	-2.48666
755	11.6052
756	1.26743
757	46.03668
758	30.61333
759	27.39038
760	0.17275
761	1.86844
762	117.10296
763	0.00661
764	0.89376
765	18.17766
766	4.90929
767	31.78484
768	-0.48883
769	2.84279
770	-2.52312
771	-0.48396
772	4.25814
773	-2.24592
774	0.22787
775	-3.79138
776	33.8078
777	1.64218
778	0.81085
779	0.00105
780	2.81312
781	4.1929
782	-3.56812
783	12.35941
784	8.57203
785	-0.40928
786	9.04597
787	0.39782
788	16.20426
789	-0.48451
790	0.60196
791	-2.5082
792	-1.09032
793	2.14299
794	-0.11945
795	-0.16502
796	0.27505
797	2.38796
798	-2.76624
799	0.96555
800	4.17071
801	-1.03276
802	0.50903
803	25.66777
804	-0.49352
805	-1.4773
806	4.21563
807	1.37062
808	5.37425
809	1.75845
810	12.46988
811	40.46607
812	26.47797
813	-1.88062
814	2.77524
815	4.20405
816	0.5258
817	12.96755
818	3.66079
819	0.03677
820	-2.27026
821	61.6485
822	3.73025
823	-2.5593
824	3.18198
825	-1.13343
826	2.78198
827	-2.40888
828	1.74609
829	-0.61219
830	3.76868
831	4.31615
832	-1.39102
833	5.07605
834	-0.02831
835	6.47729
836	-2.03785
837	-2.80983
838	1.55328
839	3.45727
840	25.03732
841	1.30425
842	4.95869
843	1.41479
844	5.14633
845	-0.14895
846	-7.49102
847	-2.14432
848	2.26213
849	-1.17343
850	1.17657
851	-3.00544
852	-0.83989
853	-1.22738
854	-1.11683
855	0.22829
856	7.81256
857	-0.67623
858	-0.71725
859	0.34443
860	-2.04231
861	0.04042
862	8.4198
863	-0.8641
864	-1.04364
865	6.92959
866	14.72686
867	5.04734
868	-1.12069
869	9.19621
870	4.21726
871	17.11333
872	8.2173
873	-1.7074
874	-0.15341
875	3.8477
876	13.15823
877	1.99294
878	-2.16408
879	12.56269
880	3.97007
881	0.6765
882	6.90493
883	-1.76703
884	8.39123
885	-4.33835
886	-13.11704
887	0.59502
888	5.07954
889	-0.55398
890	3.00913
891	65.17668
892	40.19663
893	6.04942
894	30.39772
895	7.00685
896	3.47195
897	-2.01188
898	0.36528
899	1.8129
900	12.52326
901	111.50909
902	1.11451
903	-1.47464
904	-1.95679
905	-0.1961
906	3.08708
907	-3.99892
908	47.42697
909	5.61905
910	-2.15471
911	0.06673
912	-2.99342
913	-0.26392
914	0.59408
915	1.18887
916	0.89137
917	3.60991
918	1.44452
919	-0.47508
920	-5.09409
921	8.90836
922	7.11542
923	6.27131
924	3.43229
925	1.98961
926	-1.58568
927	4.66383
928	-1.49082
929	2.34169
930	-1.44958
931	-0.2254
932	1.46857
933	1.04239
934	5.65237
935	3.19253
936	-1.38869
937	0.28587
938	7.12282
939	16.22824
940	-0.16004
941	-0.57062
942	-0.52226
943	0.20007
944	1.94303
945	14.59709
946	-5.7418
947	3.89255
948	5.53219
949	2.6073
950	15.67339
951	4.87391
952	-1.68639
953	1.65369
954	4.60669
955	0.75793
956	-0.93373
957	-2.35659
958	3.43303
959	-0.44725
960	0.33201
961	-2.60056
962	-2.00786
963	5.46328
964	-0.16164
965	-1.41507
966	-4.06697
967	-2.12068
968	-1.67895
969	18.31855
970	-2.09557
971	5.00677
972	-2.961
973	4.73636
974	6.74287
975	-1.29122
976	5.95894
977	4.00047
978	74.86326
979	1.58394
980	2.75748
981	2.65579
982	8.29053
983	-0.77978
984	25.16684
985	-1.31563
986	11.48332
987	1.50514
988	16.0155
989	2.9021
990	-2.2509
991	0.02751
992	22.51237
993	-0.85758
994	4.1224
995	-2.27886
996	1.2693
997	11.27293
998	5.81175
999	20.48023
1000	-1.05876
