Data from 47_USB2G479881__0__16-17-36-534.txt Node

Date: Tue Feb 24 16:17:36 GMT 2026
User: Student
Spectrometer: USB2G47988
Scans to average: 10
Trigger mode: 4
Integration Time (sec): 6.000000E-1
Electric dark correction enabled: true
Boxcar width: 0
XAxis mode: Wavelengths
Number of Pixels in Spectrum: 651
>>>>>Begin Spectral Data<<<<<
350	0.1479
351	-0.63009
352	3.04746
353	-2.46688
354	-0.09838
355	0.44608
356	-0.64291
357	-1.63424
358	-2.14812
359	-2.27136
360	-0.45899
361	6.93189
362	7.77019
363	-1.60286
364	-5.13081
365	10.04149
366	9.29415
367	3.35777
368	12.30274
369	4.77361
370	0.67373
371	8.17515
372	2.82735
373	0.92537
374	1.82544
375	1.37721
376	-1.01572
377	21.26205
378	5.36653
379	0.06957
380	5.00472
381	2.51624
382	13.44032
383	-1.97728
384	14.56272
385	5.3136
386	12.00677
387	5.63075
388	19.10101
389	10.70439
390	0.82998
391	3.36612
392	1.51278
393	14.46949
394	12.23514
395	-0.1181
396	-0.53436
397	22.45072
398	16.59734
399	6.845
400	7.01053
401	12.33771
402	7.46084
403	4.21308
404	0.80882
405	0.36966
406	23.98896
407	2.8653
408	3.57891
409	2.70482
410	8.16027
411	3.72453
412	2.25107
413	0.90644
414	1.53854
415	1.56352
416	4.90323
417	2.46185
418	4.71241
419	1.64915
420	1.93748
421	7.9423
422	14.85393
423	3.36364
424	5.19923
425	88.00104
426	6.82497
427	3.87465
428	1.02302
429	40.96406
430	14.92145
431	10.09543
432	2.80222
433	9.34152
434	4.68265
435	0.37525
436	19.88936
437	6.58557
438	13.08734
439	53.65076
440	8.96227
441	1.50129
442	5.34183
443	18.68941
444	2.99435
445	-17.72497
446	5.52545
447	2.14254
448	5.78747
449	11.67259
450	3.85717
451	3.13481
452	1.06127
453	5.6436
454	18.77995
455	4.32452
456	6.87562
457	6.66048
458	3.11033
459	9.37325
460	5.1444
461	1.57446
462	4.24772
463	4.42145
464	3.05466
465	4.00428
466	1.63705
467	4.7853
468	17.96686
469	7.86609
470	3.89039
471	1.10732
472	1.55739
473	6.3251
474	6.17319
475	1.10754
476	3.50195
477	5.62632
478	5.20029
479	10.0159
480	1.45267
481	10.29803
482	6.54722
483	3.57092
484	0.19776
485	-1.13096
486	5.46106
487	2.285
488	3.58541
489	18.3998
490	5.6563
491	0.52774
492	12.32211
493	1.43924
494	1.515
495	3.84343
496	1.78822
497	10.34903
498	17.14459
499	3.91148
500	1.28917
501	12.98911
502	-0.09279
503	2.10162
504	14.56735
505	6.45142
506	1.43349
507	1.0715
508	2.1934
509	-6.54952
510	21.54612
511	1.59931
512	0.31002
513	11.70226
514	2.62849
515	4.99746
516	3.0006
517	-0.80466
518	5.78719
519	0.62798
520	15.97159
521	0.90419
522	10.29014
523	5.14744
524	5.11969
525	105.49388
526	13.31548
527	15.7112
528	5.53708
529	26.78684
530	6.22397
531	2.77915
532	3.843
533	13.10039
534	1.65155
535	13.14684
536	23.4844
537	46.34207
538	5.76022
539	1.95712
540	4.31528
541	3.95294
542	1.15671
543	3.98746
544	3.95557
545	6.02498
546	59.34986
547	4.31795
548	8.08455
549	9.36634
550	10.30989
551	2.2339
552	3.24956
553	-0.90475
554	2.53508
555	10.65397
556	7.37395
557	2.76699
558	13.37969
559	5.44269
560	1.2504
561	3.77699
562	3.0825
563	5.14376
564	7.13232
565	2.26643
566	5.14654
567	1.69114
568	0.66955
569	7.43949
570	-0.91616
571	0.96153
572	1.84262
573	-0.3473
574	0.75914
575	0.23997
576	-0.69936
577	3.30341
578	1.23074
579	-0.62372
580	3.30868
581	0.98638
582	21.68112
583	0.07562
584	-2.4364
585	11.64617
586	1.6191
587	1.6813
588	0.66762
589	-0.7413
590	7.67868
591	0.33874
592	1.51989
593	1.22764
594	15.40092
595	0.04844
596	6.38569
597	18.55315
598	19.79684
599	2.44703
600	9.58322
601	11.26722
602	23.56808
603	2.84153
604	5.58312
605	24.74075
606	1.60887
607	0.01884
608	8.49047
609	7.21504
610	2.34383
611	1.90952
612	-1.48863
613	2.59496
614	102.47162
615	7.70472
616	0.67327
617	10.23338
618	3.38235
619	-0.69602
620	2.9086
621	4.1249
622	0.2932
623	0.34827
624	-0.2196
625	2.42415
626	3.18565
627	7.80637
628	14.80604
629	11.09526
630	1.03181
631	6.8
632	99.31384
633	7.57548
634	13.07367
635	2.96092
636	1.29745
637	3.21988
638	1.22921
639	3.08435
640	13.4169
641	2.76974
642	6.22351
643	6.54979
644	2.25596
645	137.46016
646	-2.1135
647	11.38166
648	12.41354
649	7.31464
650	16.13749
651	13.51609
652	11.58234
653	25.7173
654	65.57219
655	627.97027
656	556.27588
657	91.4799
658	42.70534
659	46.8212
660	19.36611
661	7.51346
662	4.84273
663	44.1038
664	3.3114
665	3.36627
666	2.14822
667	3.94265
668	0.83686
669	1.6376
670	0.71265
671	2.97663
672	1.96234
673	5.53411
674	1.28621
675	20.38343
676	12.97883
677	11.35556
678	21.8952
679	9.20419
680	2.22458
681	5.36411
682	15.73222
683	3.27517
684	13.6689
685	46.22084
686	2.32092
687	2.03565
688	0.22517
689	0.87383
690	11.7024
691	-0.31867
692	-1.94346
693	7.28785
694	1.06361
695	11.37212
696	0.43437
697	-1.92567
698	-2.00313
699	2.65762
700	-1.9402
701	-0.81887
702	1.84797
703	-2.7381
704	0.66853
705	18.51035
706	0.55155
707	-0.45718
708	0.73466
709	-2.56235
710	-0.78357
711	10.72714
712	0.56145
713	23.59556
714	-18.291
715	-24.81673
716	2.92754
717	0.22006
718	-1.20079
719	14.74022
720	-2.28192
721	-1.30775
722	0.2921
723	4.10547
724	-2.53353
725	5.81014
726	1.42586
727	6.07383
728	0.39519
729	-2.89329
730	91.11545
731	6.60069
732	3.41184
733	0.955
734	-0.28325
735	11.0349
736	4.93946
737	15.71187
738	2.27061
739	6.45898
740	0.70457
741	56.95449
742	2.05782
743	15.93452
744	12.32715
745	1.04827
746	12.01166
747	7.66788
748	20.49857
749	5.59918
750	0.15044
751	2.88388
752	-0.9882
753	3.06085
754	-1.87133
755	13.00142
756	2.50154
757	46.58798
758	29.88785
759	25.6818
760	1.09699
761	0.73164
762	119.57981
763	-0.43004
764	0.53822
765	35.21597
766	6.89664
767	30.14175
768	0.52997
769	3.349
770	-2.31068
771	0.71606
772	3.59862
773	-2.82523
774	1.69216
775	-4.54016
776	40.58682
777	2.6012
778	2.34019
779	-0.9995
780	2.38566
781	5.03678
782	-1.4502
783	12.87098
784	9.7757
785	-2.16451
786	10.57145
787	0.28396
788	18.15975
789	-0.99972
790	1.22117
791	-1.37987
792	-0.04963
793	2.87798
794	-0.82658
795	0.21736
796	1.979
797	2.95271
798	-0.58485
799	1.89264
800	3.80433
801	-0.29004
802	0.89719
803	25.02018
804	-0.16757
805	-2.13578
806	4.71089
807	2.72711
808	4.99162
809	1.73486
810	12.5508
811	42.17266
812	28.81188
813	-2.46275
814	2.51545
815	4.53571
816	0.72176
817	12.68088
818	3.7043
819	0.05666
820	-1.29243
821	63.45818
822	5.64439
823	-0.87739
824	3.24699
825	-0.52499
826	2.37724
827	-1.77585
828	1.67181
829	-1.24162
830	2.11219
831	3.17513
832	-1.72939
833	5.83997
834	-1.01016
835	5.54274
836	0.877
837	-2.16929
838	1.5397
839	3.44253
840	22.02475
841	3.88754
842	5.05251
843	0.95158
844	3.62898
845	0.69747
846	-9.71414
847	-1.24264
848	3.88307
849	-0.41424
850	2.33505
851	-2.37057
852	-2.35486
853	-0.59714
854	-2.18828
855	-0.49701
856	9.66858
857	-0.1999
858	-1.14184
859	0.48485
860	-0.85295
861	1.94239
862	7.91225
863	0.231
864	-0.55738
865	7.79689
866	16.56609
867	6.18027
868	-1.63345
869	11.76633
870	4.63481
871	17.88496
872	10.3715
873	-1.16205
874	2.26698
875	3.94342
876	12.86549
877	1.15356
878	-2.05077
879	14.29382
880	6.85858
881	2.73056
882	7.77323
883	-0.91573
884	8.07471
885	-3.7232
886	-10.79496
887	3.01465
888	5.20901
889	-0.18784
890	1.88652
891	65.65513
892	40.45087
893	8.71433
894	31.10337
895	8.38898
896	4.21662
897	-1.18762
898	2.39711
899	0.81298
900	13.43627
901	113.87574
902	0.96178
903	-1.84743
904	-1.54785
905	1.87512
906	3.81314
907	-0.82447
908	48.40877
909	8.8621
910	-1.9705
911	0.42009
912	-2.82487
913	0.51979
914	0.88337
915	1.97119
916	1.36427
917	3.1322
918	3.80982
919	-0.46943
920	-6.03029
921	7.14838
922	6.65201
923	7.02247
924	5.02564
925	1.95956
926	-2.86995
927	5.50358
928	-1.42788
929	2.08174
930	-0.46912
931	0.46867
932	3.04722
933	2.04707
934	6.76914
935	3.41693
936	-1.12036
937	0.29475
938	5.60556
939	16.47528
940	-1.26732
941	-0.1818
942	-1.30017
943	1.24635
944	3.73864
945	15.45024
946	-4.25658
947	3.42006
948	7.56828
949	1.8866
950	15.28471
951	4.86083
952	-2.21905
953	0.12745
954	5.29807
955	0.36731
956	-0.65469
957	-1.29215
958	4.78499
959	1.35457
960	0.52908
961	-1.77848
962	-1.4891
963	5.48431
964	0.32405
965	-2.02012
966	-2.55917
967	-1.91184
968	-1.15355
969	17.64165
970	-2.33213
971	7.33872
972	-2.12123
973	4.45027
974	11.39782
975	-2.34271
976	6.7045
977	4.48937
978	77.58553
979	1.91926
980	2.55653
981	3.22404
982	8.15496
983	-1.91172
984	26.67326
985	-0.73539
986	9.59216
987	1.8368
988	13.37926
989	4.11964
990	-0.9409
991	-1.21319
992	21.66762
993	-2.28824
994	4.51567
995	-1.94735
996	1.01064
997	12.3288
998	7.22901
999	20.33345
1000	-0.38235
