Data from 28_USB2G479881__0__17-07-45-608.txt Node

Date: Wed Feb 25 17:07:45 GMT 2026
User: Student
Spectrometer: USB2G47988
Scans to average: 300
Trigger mode: 4
Integration Time (sec): 2.000000E-2
Electric dark correction enabled: true
Boxcar width: 0
XAxis mode: Wavelengths
Number of Pixels in Spectrum: 651
>>>>>Begin Spectral Data<<<<<
350	-0.22719
351	-0.32484
352	0.19367
353	0.04855
354	0.30981
355	0.61574
356	0.57644
357	0.61201
358	0.57385
359	1.00626
360	1.11435
361	1.46192
362	1.56048
363	1.57009
364	1.43354
365	2.24237
366	2.1124
367	2.07151
368	2.6276
369	2.33521
370	2.34977
371	2.73737
372	2.74758
373	2.64265
374	2.82458
375	3.03309
376	3.11456
377	4.01079
378	3.37704
379	3.60936
380	3.42943
381	3.65881
382	4.2284
383	3.72596
384	4.42144
385	4.10717
386	4.61434
387	4.26213
388	4.60153
389	4.7301
390	4.59852
391	4.50753
392	4.83901
393	5.07045
394	5.24187
395	4.92707
396	4.5923
397	5.46106
398	5.82991
399	5.48389
400	5.34601
401	5.40329
402	5.495
403	5.24176
404	5.13834
405	5.41302
406	6.46795
407	5.65877
408	5.69354
409	5.66287
410	6.01057
411	5.59225
412	5.74962
413	5.52472
414	5.57258
415	5.734
416	5.91243
417	5.86684
418	5.99013
419	6.04446
420	5.90361
421	6.20292
422	6.5679
423	6.22754
424	6.10866
425	7.61061
426	6.47474
427	6.04278
428	6.03928
429	6.68421
430	6.80239
431	6.93996
432	6.19641
433	6.71842
434	6.23641
435	6.55919
436	7.17246
437	6.60176
438	6.7094
439	6.96448
440	7.15184
441	6.15678
442	6.46079
443	6.36967
444	6.24763
445	5.49293
446	10.39143
447	6.53123
448	6.35816
449	6.36281
450	6.17608
451	6.14987
452	6.08387
453	6.27883
454	6.83964
455	6.22622
456	6.1681
457	6.09909
458	6.04051
459	6.09048
460	6.03524
461	6.02835
462	6.01914
463	6.048
464	6.02326
465	6.17219
466	6.10848
467	5.80659
468	6.6567
469	6.27382
470	6.0863
471	6.01833
472	5.73547
473	5.85121
474	5.90182
475	5.90065
476	5.81183
477	5.83151
478	5.95542
479	5.95362
480	5.4275
481	6.3279
482	5.81033
483	5.78817
484	5.67625
485	5.46195
486	5.60927
487	5.54181
488	5.74125
489	6.20158
490	5.64399
491	5.83744
492	6.05626
493	5.41557
494	5.35107
495	5.53792
496	5.41382
497	5.87137
498	5.9282
499	5.73546
500	5.25817
501	5.64402
502	5.21582
503	5.29205
504	5.50574
505	5.34797
506	5.25767
507	5.2284
508	5.28162
509	8.03674
510	5.93941
511	5.33753
512	4.96667
513	5.47306
514	5.06754
515	5.19806
516	5.14498
517	5.09237
518	5.24741
519	4.90857
520	5.23112
521	4.76778
522	5.43819
523	4.88184
524	4.97777
525	6.86927
526	5.53086
527	5.0987
528	5.03063
529	5.478
530	4.70798
531	4.84968
532	4.60924
533	4.82541
534	4.69224
535	5.08389
536	4.86594
537	6.09356
538	4.81922
539	4.6041
540	4.45824
541	4.59387
542	4.39026
543	4.30084
544	4.34572
545	4.51295
546	5.37503
547	4.52203
548	4.52888
549	4.80216
550	4.44118
551	4.21841
552	4.27794
553	3.89372
554	4.29045
555	4.37925
556	4.65326
557	4.27924
558	4.37707
559	4.30235
560	4.23027
561	4.19275
562	4.27559
563	4.28603
564	4.33201
565	4.28126
566	4.18213
567	4.1027
568	3.80743
569	4.1962
570	3.82077
571	4.06427
572	3.90223
573	3.69272
574	3.90641
575	4.0439
576	3.60376
577	3.72565
578	3.77414
579	3.59132
580	3.92499
581	3.81322
582	4.22648
583	3.89707
584	3.33851
585	4.28449
586	3.63435
587	3.81966
588	3.63619
589	3.22635
590	3.78092
591	3.57408
592	3.46883
593	3.64179
594	4.34215
595	3.5059
596	3.79916
597	4.12036
598	4.14773
599	3.63819
600	3.84086
601	4.28767
602	4.25477
603	3.57516
604	3.61151
605	4.91412
606	3.85618
607	3.52604
608	3.88135
609	3.89287
610	3.45348
611	3.83376
612	3.40291
613	3.49613
614	4.99583
615	3.93133
616	3.53046
617	3.83666
618	4.06965
619	3.73688
620	3.63565
621	3.79516
622	3.74291
623	3.77869
624	3.72877
625	4.04906
626	3.80459
627	4.4707
628	4.80249
629	4.56278
630	4.15247
631	4.25769
632	6.00527
633	4.83496
634	4.94604
635	4.83247
636	4.87822
637	5.14784
638	5.07697
639	5.6686
640	6.6345
641	6.02301
642	6.48117
643	6.38937
644	7.12361
645	8.66361
646	9.75791
647	9.26178
648	9.98433
649	11.19028
650	12.34346
651	14.12359
652	16.789
653	28.43874
654	80.02058
655	1237.05195
656	406.65962
657	58.75959
658	24.59948
659	15.94477
660	11.4806
661	9.08797
662	7.94105
663	8.05166
664	6.79618
665	5.99304
666	5.64178
667	5.40812
668	5.17452
669	4.80204
670	4.67433
671	4.36031
672	4.139
673	4.39334
674	4.22407
675	5.00478
676	4.31823
677	4.29127
678	4.24038
679	4.08286
680	3.48061
681	3.34104
682	3.47509
683	3.39175
684	3.52035
685	4.00302
686	3.30811
687	3.04198
688	3.06198
689	2.84134
690	3.06598
691	2.82566
692	2.75059
693	3.32456
694	2.95021
695	3.52311
696	2.71553
697	2.66066
698	2.63158
699	2.92619
700	2.67508
701	2.7569
702	2.76369
703	2.55033
704	2.68914
705	3.22913
706	2.63463
707	2.37698
708	2.34843
709	2.46445
710	2.49389
711	3.19333
712	2.58691
713	2.96697
714	2.36566
715	8.47513
716	2.90474
717	2.70935
718	2.40315
719	3.01762
720	2.19567
721	2.58881
722	2.45745
723	2.72207
724	2.52023
725	2.63735
726	2.53837
727	2.62094
728	2.36669
729	2.33101
730	3.88795
731	2.86295
732	2.77541
733	2.46983
734	2.14322
735	2.65526
736	2.54732
737	2.79092
738	2.41002
739	2.74788
740	2.0752
741	3.79194
742	2.5193
743	3.05545
744	2.77031
745	2.63484
746	2.66973
747	2.59972
748	2.89564
749	2.75487
750	2.4295
751	2.52285
752	2.14615
753	2.42422
754	2.31181
755	2.59884
756	2.2732
757	2.95995
758	3.52602
759	3.08499
760	2.36917
761	2.32709
762	3.12128
763	2.34123
764	2.24149
765	2.90773
766	2.87113
767	3.37118
768	2.33317
769	2.37184
770	2.36981
771	2.37042
772	2.63827
773	2.19977
774	2.17638
775	2.09746
776	3.16424
777	2.54606
778	2.2447
779	2.00246
780	2.47332
781	2.23724
782	2.12907
783	2.73845
784	2.4662
785	2.12839
786	2.39709
787	2.20925
788	3.28604
789	2.04754
790	2.23395
791	2.27758
792	2.42914
793	2.37491
794	2.04955
795	2.14285
796	2.08373
797	2.2828
798	2.31614
799	2.1191
800	2.28962
801	2.07271
802	2.03742
803	3.12083
804	2.15575
805	2.02705
806	2.52582
807	2.23953
808	2.45291
809	2.14881
810	2.28135
811	2.86854
812	3.59292
813	2.35497
814	2.2881
815	2.42053
816	2.20745
817	2.34974
818	2.51295
819	2.30527
820	2.1883
821	3.35363
822	2.80527
823	1.86968
824	2.21532
825	1.98379
826	2.3074
827	2.05145
828	1.96248
829	2.16668
830	2.17764
831	2.16628
832	2.0518
833	2.27113
834	2.04339
835	2.33567
836	2.35449
837	1.98113
838	1.97887
839	1.9709
840	2.66234
841	2.38387
842	2.27033
843	2.04865
844	2.24759
845	2.22695
846	2.1583
847	3.68905
848	2.19781
849	2.01849
850	2.20639
851	1.9951
852	1.74652
853	2.00399
854	2.25949
855	2.05829
856	2.41689
857	2.05665
858	2.11458
859	2.00838
860	1.89382
861	1.91924
862	2.7429
863	2.29134
864	2.07259
865	2.57945
866	2.70208
867	2.42354
868	1.90244
869	2.33365
870	2.46339
871	2.91574
872	4.29938
873	2.1433
874	1.96047
875	2.12956
876	2.61597
877	2.16346
878	1.91341
879	2.3353
880	2.35666
881	2.36498
882	2.50334
883	2.12586
884	2.70051
885	1.98608
886	2.34722
887	3.42551
888	2.4339
889	1.90711
890	2.29377
891	2.91288
892	4.69084
893	2.44284
894	3.02887
895	2.37384
896	2.18107
897	1.67856
898	2.01956
899	2.18908
900	2.64254
901	4.86175
902	2.37023
903	1.90342
904	2.18041
905	2.36168
906	2.39675
907	2.21518
908	3.11925
909	2.34993
910	1.90001
911	2.09698
912	2.14816
913	1.96771
914	2.03234
915	2.03153
916	2.3401
917	2.37328
918	2.08832
919	2.09636
920	1.69507
921	2.55725
922	2.83972
923	2.35242
924	2.39271
925	1.98112
926	1.88023
927	2.11218
928	2.03992
929	1.95074
930	2.25317
931	2.27186
932	2.08541
933	1.96053
934	2.43731
935	2.24314
936	2.15797
937	2.21403
938	2.14297
939	2.15698
940	1.90658
941	2.08884
942	2.09313
943	2.02528
944	2.18499
945	3.84394
946	2.1305
947	2.33779
948	2.15669
949	2.15963
950	2.53969
951	2.28238
952	2.07375
953	1.95037
954	2.15891
955	2.05068
956	1.99282
957	1.93052
958	2.1181
959	2.25984
960	1.81017
961	1.74977
962	1.74432
963	2.35177
964	2.03436
965	1.74312
966	1.95419
967	2.08621
968	2.0381
969	2.59264
970	2.02335
971	2.31291
972	2.00903
973	2.35487
974	2.83997
975	2.03713
976	2.33244
977	1.93845
978	3.82882
979	2.30433
980	2.53176
981	2.15485
982	2.26111
983	2.06345
984	2.98753
985	2.0586
986	2.65673
987	2.01205
988	2.47965
989	2.2528
990	1.96654
991	1.84885
992	2.6854
993	2.39018
994	2.6661
995	2.08924
996	2.11988
997	2.8113
998	2.904
999	2.70841
1000	2.10531
