Data from 31_USB2G479881__0__17-09-47-365.txt Node

Date: Wed Feb 25 17:09:47 GMT 2026
User: Student
Spectrometer: USB2G47988
Scans to average: 300
Trigger mode: 4
Integration Time (sec): 2.000000E-2
Electric dark correction enabled: true
Boxcar width: 0
XAxis mode: Wavelengths
Number of Pixels in Spectrum: 651
>>>>>Begin Spectral Data<<<<<
350	-0.36672
351	-0.11945
352	0.15381
353	-0.11858
354	0.45093
355	0.48804
356	0.60752
357	0.89292
358	0.97745
359	0.7611
360	1.13194
361	1.39353
362	1.49137
363	1.29635
364	1.69924
365	2.34134
366	2.19846
367	2.10861
368	2.80599
369	2.33504
370	2.34061
371	2.52801
372	2.65578
373	2.82619
374	2.94171
375	2.77072
376	3.20594
377	3.90829
378	3.50725
379	3.29188
380	3.52818
381	3.64916
382	4.44349
383	3.65467
384	4.56786
385	3.95327
386	4.6608
387	4.33591
388	4.63459
389	4.57433
390	4.58168
391	4.40885
392	4.53218
393	5.09804
394	5.04298
395	4.72251
396	4.9937
397	5.38943
398	5.93839
399	5.51412
400	5.44392
401	5.65808
402	5.57596
403	5.22797
404	5.36364
405	5.44555
406	6.15915
407	5.46538
408	5.68292
409	5.61097
410	5.80797
411	5.56224
412	5.73106
413	5.83889
414	5.85934
415	5.98025
416	5.91765
417	5.78849
418	5.92574
419	6.23932
420	5.93183
421	6.25912
422	6.46462
423	6.10764
424	6.03952
425	7.67207
426	6.86726
427	6.16603
428	6.29381
429	6.85257
430	6.65313
431	6.89272
432	6.32268
433	6.53843
434	6.32706
435	6.11292
436	7.03366
437	6.32896
438	6.35317
439	7.11137
440	6.98848
441	6.26145
442	6.22273
443	6.60129
444	6.19868
445	5.77016
446	10.46749
447	6.27048
448	6.29157
449	6.30494
450	6.50292
451	6.19504
452	6.24074
453	6.39051
454	6.77858
455	6.04967
456	6.01045
457	6.20029
458	6.1016
459	6.48444
460	6.13555
461	5.89228
462	6.25971
463	6.18136
464	6.28287
465	6.04787
466	6.12729
467	6.10792
468	6.57063
469	6.25165
470	6.04752
471	5.90704
472	5.69049
473	5.93546
474	5.99655
475	5.95687
476	5.78707
477	5.91604
478	5.99078
479	5.85787
480	5.85165
481	6.31226
482	5.57229
483	5.75781
484	5.81758
485	5.84346
486	5.72534
487	5.58201
488	5.66212
489	6.67276
490	5.5808
491	5.42375
492	6.11969
493	5.62197
494	5.47336
495	5.45228
496	5.68601
497	5.65908
498	5.87189
499	5.46987
500	5.25533
501	5.78539
502	5.33997
503	5.30125
504	5.53757
505	5.21617
506	4.99161
507	5.32297
508	5.1359
509	7.96151
510	6.06308
511	5.11875
512	4.95027
513	5.29949
514	5.03058
515	5.15082
516	5.2392
517	4.74159
518	4.92811
519	4.88704
520	5.282
521	4.98646
522	5.19697
523	4.80021
524	4.95309
525	6.92108
526	5.31624
527	5.105
528	4.70898
529	5.12558
530	4.96557
531	4.60392
532	4.74788
533	4.7338
534	4.66151
535	5.14015
536	4.86443
537	6.09949
538	4.70838
539	4.41954
540	4.54741
541	4.5878
542	4.3609
543	4.26987
544	4.37639
545	4.4891
546	5.51046
547	4.69968
548	4.33558
549	4.43954
550	4.4257
551	4.33686
552	4.17602
553	4.2879
554	4.22814
555	4.35432
556	4.11356
557	4.13241
558	4.45689
559	4.23246
560	4.07165
561	4.04008
562	4.2035
563	4.2403
564	4.3289
565	3.92161
566	3.92864
567	3.78761
568	3.76383
569	4.18232
570	3.85564
571	4.0641
572	3.91787
573	3.91956
574	3.8773
575	3.88783
576	3.89629
577	3.66754
578	3.90417
579	3.559
580	3.51678
581	3.95265
582	4.38375
583	3.61355
584	3.487
585	4.14231
586	3.75607
587	3.6035
588	3.46965
589	3.69161
590	3.83442
591	3.34501
592	3.40476
593	3.64154
594	4.30406
595	3.43733
596	3.95789
597	4.21289
598	4.18164
599	3.81197
600	3.50695
601	4.19354
602	3.95748
603	3.45455
604	3.44433
605	4.2854
606	3.59674
607	3.38723
608	3.71279
609	3.72342
610	3.68281
611	3.723
612	3.53925
613	3.30323
614	5.01509
615	4.05242
616	3.4817
617	3.45527
618	3.69167
619	3.54095
620	3.63549
621	3.66102
622	3.74193
623	3.77515
624	3.66498
625	3.67229
626	3.70178
627	3.91872
628	4.65374
629	4.22925
630	3.87772
631	4.04092
632	5.44978
633	4.25228
634	4.52167
635	4.4452
636	4.30037
637	4.65127
638	4.6709
639	4.89288
640	5.79351
641	5.34049
642	5.60322
643	5.80732
644	5.99445
645	7.83237
646	8.66512
647	7.90765
648	8.24796
649	9.15687
650	10.06239
651	11.66756
652	13.79681
653	22.19941
654	59.79403
655	966.13336
656	362.87093
657	52.91402
658	21.35336
659	13.39118
660	9.62981
661	7.8821
662	6.77058
663	7.12642
664	5.84539
665	5.24216
666	4.87158
667	4.60813
668	4.33916
669	4.44367
670	4.32372
671	3.8312
672	3.7909
673	3.54321
674	3.67709
675	4.50413
676	3.86408
677	4.03861
678	4.00568
679	3.84618
680	3.37678
681	3.31741
682	3.31995
683	3.19244
684	3.38853
685	3.72236
686	3.00993
687	2.83461
688	3.19448
689	2.93035
690	3.13574
691	2.885
692	2.51293
693	2.92455
694	2.68378
695	3.02319
696	2.66432
697	2.6341
698	2.65246
699	2.96657
700	2.62052
701	2.57884
702	2.76616
703	2.73425
704	2.72186
705	3.03333
706	2.63159
707	2.62619
708	2.46714
709	2.38377
710	2.35486
711	3.1927
712	2.76152
713	2.86536
714	2.38464
715	8.23769
716	2.9819
717	2.50921
718	2.51312
719	3.16291
720	2.47188
721	2.34449
722	2.47085
723	2.7814
724	2.48871
725	2.80263
726	2.4041
727	2.56979
728	2.56697
729	2.4602
730	3.8358
731	2.95874
732	2.35678
733	2.45683
734	2.30009
735	2.52102
736	2.49041
737	3.34817
738	2.62882
739	2.40286
740	2.34534
741	3.648
742	2.49761
743	3.1321
744	2.66511
745	2.35492
746	2.73381
747	2.73204
748	2.98917
749	2.81402
750	2.39596
751	2.47871
752	2.33812
753	2.51924
754	2.32392
755	2.56549
756	2.13008
757	3.07257
758	3.79628
759	3.32997
760	2.37872
761	2.30189
762	4.02788
763	2.47078
764	2.33517
765	2.80924
766	2.8467
767	3.31552
768	2.17018
769	2.32581
770	2.20967
771	2.30359
772	2.35525
773	2.17407
774	2.44248
775	2.18975
776	3.03462
777	2.28667
778	2.54305
779	2.23015
780	2.10913
781	2.34516
782	2.02697
783	2.82089
784	2.52931
785	2.03962
786	2.53856
787	2.22906
788	3.51439
789	2.32942
790	2.35396
791	2.18034
792	2.26336
793	2.33431
794	1.87514
795	2.25543
796	2.18177
797	2.34784
798	2.23406
799	2.55301
800	2.22074
801	1.78717
802	2.29635
803	2.83069
804	2.23778
805	2.26192
806	2.44892
807	2.48715
808	2.44535
809	2.36543
810	2.71896
811	2.89196
812	3.20323
813	2.01451
814	2.11503
815	2.39039
816	2.14844
817	2.32477
818	2.23126
819	2.1822
820	2.05662
821	3.30377
822	2.67376
823	2.09094
824	2.46924
825	2.21675
826	2.36778
827	2.13987
828	2.19457
829	2.08475
830	2.13936
831	2.20316
832	1.96632
833	2.04181
834	2.23844
835	2.19932
836	2.20535
837	1.88413
838	2.34232
839	2.30615
840	2.51584
841	2.57528
842	2.49423
843	2.0792
844	2.17587
845	1.97639
846	1.87635
847	2.45993
848	2.10498
849	2.13118
850	2.31386
851	2.07493
852	2.02753
853	2.16184
854	2.01583
855	2.02264
856	2.17857
857	1.9808
858	2.27166
859	2.09024
860	2.13602
861	1.99271
862	2.7168
863	2.16886
864	1.8436
865	2.62687
866	2.51033
867	2.60001
868	2.11177
869	2.57773
870	2.13701
871	3.10409
872	4.29192
873	2.24481
874	2.25074
875	2.10226
876	2.45598
877	2.19519
878	1.86241
879	2.18426
880	2.21417
881	2.09296
882	2.40376
883	1.92046
884	2.38325
885	1.72942
886	2.10454
887	3.20635
888	2.0997
889	2.00718
890	2.20508
891	3.13771
892	4.549
893	2.40949
894	2.92154
895	2.32981
896	2.12227
897	1.89234
898	2.11891
899	1.99804
900	2.39717
901	4.85236
902	2.14939
903	1.78719
904	1.85341
905	2.17141
906	2.00204
907	2.16791
908	3.15982
909	2.51048
910	2.1544
911	2.17003
912	2.14845
913	2.30549
914	2.05481
915	2.21845
916	2.04772
917	2.23789
918	2.12615
919	1.98762
920	1.96241
921	2.66431
922	3.07036
923	2.11818
924	2.22873
925	2.06867
926	1.93135
927	2.1462
928	1.95671
929	1.92694
930	2.23607
931	2.01456
932	2.21588
933	2.06348
934	2.30981
935	1.94677
936	1.94238
937	1.89928
938	2.53044
939	2.52677
940	2.15687
941	2.01154
942	1.92244
943	1.94539
944	1.88666
945	4.00707
946	2.16566
947	2.55255
948	2.46022
949	2.26241
950	2.41959
951	2.14171
952	2.1166
953	2.24497
954	2.17935
955	2.00264
956	2.0671
957	1.97492
958	1.89357
959	1.88925
960	2.14029
961	1.82326
962	1.99296
963	2.25766
964	2.20727
965	1.90374
966	1.76524
967	1.86608
968	2.02523
969	2.66019
970	1.98643
971	2.11834
972	1.90378
973	2.13321
974	2.76383
975	2.30872
976	2.52169
977	2.27701
978	3.94399
979	2.33069
980	2.40799
981	2.20854
982	2.20795
983	1.87174
984	2.69731
985	2.08988
986	2.77202
987	2.07472
988	2.38741
989	2.23425
990	1.79704
991	1.9819
992	2.75572
993	2.45359
994	2.58661
995	1.89276
996	2.22808
997	2.57665
998	2.61323
999	2.65801
1000	2.0808
