Data from 34_USB2G479881__0__17-21-06-616.txt Node

Date: Wed Feb 25 17:21:06 GMT 2026
User: Student
Spectrometer: USB2G47988
Scans to average: 300
Trigger mode: 4
Integration Time (sec): 2.000000E-2
Electric dark correction enabled: true
Boxcar width: 0
XAxis mode: Wavelengths
Number of Pixels in Spectrum: 651
>>>>>Begin Spectral Data<<<<<
350	-0.62268
351	-0.19017
352	0.11181
353	0.27791
354	0.42312
355	0.5182
356	0.61723
357	0.80909
358	0.9418
359	0.81289
360	1.06144
361	1.48972
362	1.61433
363	1.46039
364	1.48314
365	2.31068
366	2.07104
367	1.84598
368	2.62137
369	2.20806
370	2.4431
371	2.7274
372	2.66062
373	2.92232
374	2.73377
375	2.8397
376	3.2525
377	3.95395
378	3.34572
379	3.44813
380	3.35008
381	3.53051
382	4.18808
383	3.72951
384	4.47492
385	4.05669
386	4.34726
387	4.36145
388	4.61162
389	4.50261
390	4.45699
391	4.7823
392	4.6701
393	5.23798
394	5.03028
395	4.69501
396	4.753
397	5.39824
398	5.9925
399	5.27036
400	5.41711
401	5.62682
402	5.51586
403	5.5661
404	5.41807
405	5.44062
406	5.90244
407	5.61408
408	5.80163
409	5.62587
410	5.81275
411	5.64572
412	5.9031
413	5.53078
414	5.86689
415	5.96857
416	5.57284
417	5.85275
418	6.26224
419	6.12738
420	5.82812
421	6.31002
422	6.35636
423	6.02159
424	6.26119
425	7.77644
426	6.56875
427	6.22841
428	6.24097
429	6.64335
430	6.75445
431	7.03613
432	6.18433
433	6.57699
434	6.00451
435	6.13243
436	7.05603
437	6.49987
438	6.3173
439	6.94155
440	7.06504
441	6.01697
442	6.29386
443	6.53937
444	6.21705
445	5.64073
446	10.68661
447	6.69359
448	6.33051
449	6.50891
450	6.37841
451	6.32314
452	5.87272
453	6.32172
454	6.8965
455	6.39253
456	6.24137
457	6.31996
458	6.12111
459	6.28332
460	6.1883
461	6.16087
462	6.25429
463	6.38348
464	6.13941
465	5.86497
466	5.90719
467	6.07246
468	6.73436
469	6.35646
470	5.95906
471	5.78089
472	5.82584
473	5.86401
474	5.86968
475	5.7064
476	5.91335
477	5.8419
478	5.99786
479	6.158
480	5.69814
481	6.26583
482	6.00086
483	5.95362
484	5.51375
485	5.53129
486	5.59755
487	5.61924
488	5.486
489	6.60108
490	5.95621
491	5.7553
492	5.96103
493	5.56389
494	5.5396
495	5.53959
496	5.58758
497	5.6136
498	5.78603
499	5.58425
500	5.49089
501	5.66743
502	5.20372
503	5.22479
504	5.51296
505	5.49919
506	5.1803
507	4.92935
508	5.42816
509	7.82413
510	5.84887
511	5.004
512	4.95072
513	5.40512
514	5.23005
515	4.94434
516	4.81576
517	4.68392
518	5.12273
519	4.89718
520	5.21498
521	4.94677
522	5.41528
523	4.94191
524	4.89246
525	6.8101
526	5.85969
527	5.15475
528	4.92145
529	5.37998
530	4.68369
531	4.8871
532	4.73865
533	4.92934
534	4.66886
535	5.15245
536	5.05046
537	6.15499
538	5.02218
539	4.78739
540	4.679
541	4.64307
542	4.28508
543	4.52468
544	4.53599
545	4.19039
546	5.49444
547	4.68271
548	4.60129
549	4.38898
550	4.53589
551	4.44736
552	4.2252
553	4.09758
554	4.17538
555	4.3944
556	4.23442
557	4.20379
558	4.73084
559	4.36708
560	4.29482
561	4.14986
562	4.15399
563	4.15889
564	4.40494
565	4.09541
566	4.19778
567	4.02257
568	3.78715
569	3.94431
570	3.91054
571	3.82255
572	4.07693
573	3.8538
574	3.71959
575	3.76956
576	3.83751
577	3.75386
578	4.02785
579	3.85966
580	3.84218
581	3.86879
582	4.0547
583	3.69307
584	3.54295
585	4.48313
586	3.75068
587	3.84163
588	3.63769
589	3.54141
590	3.84945
591	3.77462
592	3.66915
593	3.53948
594	4.0524
595	3.67663
596	3.8479
597	4.16707
598	4.37595
599	3.46253
600	3.71132
601	3.94366
602	4.12926
603	3.48019
604	3.59129
605	4.69153
606	3.75209
607	3.60299
608	3.54311
609	3.94329
610	3.77861
611	3.49139
612	3.38858
613	3.52223
614	4.815
615	3.94943
616	3.43572
617	3.59686
618	3.71821
619	3.51196
620	3.46609
621	3.47929
622	3.60022
623	3.37095
624	3.41008
625	3.42939
626	3.39378
627	3.86455
628	4.23828
629	3.95948
630	3.73501
631	3.86993
632	5.20103
633	4.22776
634	4.17082
635	3.88534
636	3.72923
637	4.05525
638	4.19974
639	4.53034
640	5.82621
641	4.90159
642	5.01491
643	5.04705
644	4.99982
645	6.89461
646	8.22807
647	6.50891
648	6.8351
649	7.43623
650	8.29317
651	9.34489
652	11.13851
653	17.43245
654	41.53366
655	724.85605
656	373.30324
657	54.05156
658	19.23
659	11.75889
660	8.13349
661	6.70412
662	5.82947
663	6.3149
664	4.95321
665	4.65393
666	4.22036
667	4.06574
668	4.01003
669	4.05558
670	3.78625
671	3.51575
672	3.41005
673	3.56436
674	3.507
675	4.29855
676	3.6702
677	3.71872
678	3.91658
679	3.52799
680	3.37415
681	3.26114
682	3.19823
683	3.2065
684	3.09541
685	3.85762
686	2.93867
687	2.69109
688	2.9245
689	2.54436
690	2.91896
691	2.53433
692	2.73137
693	3.07895
694	2.63591
695	3.06972
696	2.54929
697	2.5159
698	2.43346
699	2.76475
700	2.45028
701	2.61106
702	2.50041
703	2.58512
704	2.6511
705	3.07309
706	2.76917
707	2.51697
708	2.43081
709	2.45712
710	2.43272
711	3.1201
712	2.75569
713	3.15316
714	2.28704
715	8.01218
716	2.84626
717	2.61794
718	2.30496
719	3.11319
720	2.3773
721	2.41334
722	2.57424
723	2.78363
724	2.31197
725	2.8808
726	2.55084
727	2.6407
728	2.58582
729	2.25173
730	3.79281
731	2.82898
732	2.70631
733	2.458
734	2.34094
735	2.52295
736	2.59678
737	3.1899
738	2.46352
739	2.9293
740	2.63093
741	3.9421
742	2.66444
743	3.30472
744	2.82999
745	2.5245
746	2.73757
747	2.82631
748	2.73242
749	2.4248
750	2.23693
751	2.31069
752	2.2305
753	2.6281
754	2.22466
755	2.84179
756	2.30317
757	2.95803
758	3.80878
759	3.25321
760	2.36306
761	2.45743
762	2.89466
763	2.31831
764	2.14145
765	2.94019
766	2.69617
767	3.00683
768	2.11597
769	2.39897
770	2.27872
771	2.23374
772	2.4322
773	2.15288
774	2.21646
775	2.10084
776	3.1729
777	2.58222
778	2.36906
779	2.1907
780	2.24698
781	2.55992
782	2.14831
783	2.61859
784	2.51747
785	2.04831
786	2.72966
787	2.2354
788	3.38886
789	2.18603
790	2.31994
791	2.15933
792	2.27955
793	2.49183
794	2.21521
795	2.34541
796	2.2616
797	2.25509
798	2.19214
799	2.30569
800	2.16771
801	1.99672
802	2.26918
803	2.93031
804	2.34464
805	2.12183
806	2.45816
807	2.25665
808	2.52194
809	2.23153
810	2.68213
811	2.92784
812	3.65819
813	2.07986
814	2.09307
815	2.4318
816	2.39549
817	2.47724
818	2.46138
819	2.16097
820	2.23037
821	3.20844
822	2.46957
823	2.1199
824	2.11812
825	2.07732
826	2.03254
827	1.95684
828	2.21937
829	2.25473
830	2.32366
831	2.11595
832	2.12158
833	2.48808
834	2.17461
835	2.48219
836	1.99239
837	2.16665
838	2.23314
839	2.26218
840	2.5351
841	2.34754
842	2.53549
843	2.06268
844	2.25576
845	2.15218
846	2.26957
847	2.72146
848	2.22893
849	2.10496
850	2.36478
851	2.01086
852	2.21976
853	2.03245
854	2.14593
855	1.86154
856	2.53242
857	2.0766
858	2.03566
859	2.2164
860	2.31763
861	2.21037
862	2.49791
863	2.21024
864	2.18409
865	2.38236
866	2.54601
867	2.29053
868	2.13497
869	2.46514
870	2.33286
871	2.84769
872	4.33039
873	2.32856
874	2.27549
875	2.1193
876	2.76626
877	2.08516
878	2.01942
879	2.66662
880	2.46789
881	2.20316
882	2.19109
883	1.99129
884	2.12362
885	1.90063
886	2.56027
887	3.5805
888	2.57422
889	2.17818
890	2.10771
891	2.60191
892	4.64279
893	2.37241
894	3.01015
895	2.40651
896	2.27315
897	2.03565
898	2.32705
899	2.41883
900	2.54541
901	5.14842
902	2.43201
903	2.1323
904	2.0816
905	2.1961
906	2.21359
907	2.13259
908	2.79384
909	2.26017
910	2.11283
911	2.30559
912	2.05048
913	1.99603
914	1.91989
915	2.15709
916	2.2881
917	2.31411
918	2.54113
919	2.14532
920	2.02991
921	2.86914
922	2.72114
923	2.21306
924	2.32377
925	2.34711
926	2.16622
927	2.28581
928	2.34135
929	2.09826
930	2.25076
931	1.74938
932	2.2583
933	1.79999
934	2.35918
935	2.29385
936	1.96121
937	2.04748
938	2.31217
939	2.51633
940	2.45804
941	2.06626
942	1.99214
943	2.12091
944	2.10457
945	4.08677
946	2.29106
947	2.78196
948	2.53628
949	2.24594
950	2.47122
951	2.57476
952	2.15633
953	2.01885
954	1.96979
955	2.15333
956	2.08609
957	1.86328
958	2.34424
959	2.0737
960	1.97989
961	2.16816
962	1.84033
963	2.36714
964	2.21265
965	1.82241
966	2.24124
967	2.08122
968	1.93694
969	2.79137
970	1.98129
971	2.31799
972	2.09292
973	2.19023
974	2.1632
975	2.04857
976	2.26771
977	2.32809
978	3.01436
979	2.42452
980	2.35183
981	2.04826
982	2.23713
983	1.95032
984	3.15001
985	2.34193
986	3.01092
987	2.13287
988	2.73049
989	2.20723
990	2.09163
991	1.99597
992	2.7835
993	2.31958
994	2.93004
995	2.14476
996	1.99434
997	2.62098
998	2.65559
999	2.76769
1000	1.90241
