Data from 20_USB2G479881__0__16-49-55-928.txt Node

Date: Thu Feb 26 16:49:55 GMT 2026
User: Student
Spectrometer: USB2G47988
Scans to average: 40
Trigger mode: 4
Integration Time (sec): 2.000000E-1
Electric dark correction enabled: true
Boxcar width: 0
XAxis mode: Wavelengths
Number of Pixels in Spectrum: 651
>>>>>Begin Spectral Data<<<<<
350	-0.25554
351	0.05392
352	0.15468
353	-0.90775
354	0.95471
355	0.76475
356	-0.79101
357	-0.15909
358	-0.4412
359	-0.85407
360	-0.4721
361	3.19679
362	2.72774
363	0.71315
364	-0.26015
365	4.59343
366	3.10576
367	2.03298
368	5.69044
369	2.84609
370	0.68847
371	4.03656
372	2.73564
373	2.1376
374	1.50848
375	1.79477
376	0.95769
377	8.42009
378	3.20259
379	2.89107
380	2.41198
381	3.19229
382	6.40018
383	1.42739
384	7.02724
385	2.99793
386	5.80706
387	3.10848
388	6.87013
389	5.05723
390	2.15887
391	3.17163
392	3.11911
393	6.89211
394	5.50324
395	3.21749
396	2.09468
397	9.38505
398	9.77218
399	5.19833
400	5.50192
401	6.66997
402	4.75051
403	4.66911
404	2.58664
405	3.47906
406	10.11283
407	2.97524
408	3.89886
409	3.15487
410	4.67852
411	3.8236
412	3.59894
413	2.87395
414	3.04913
415	3.92099
416	3.4219
417	3.69157
418	4.61187
419	3.32819
420	3.75051
421	5.10068
422	7.58034
423	4.10567
424	4.07998
425	23.98785
426	5.91339
427	3.21701
428	2.80835
429	11.80934
430	8.0208
431	7.04079
432	3.61793
433	6.47776
434	3.55705
435	3.49892
436	9.59816
437	4.61906
438	6.91183
439	15.59711
440	7.52515
441	3.48271
442	4.98481
443	8.44573
444	4.8161
445	-0.56093
446	15.0286
447	4.43047
448	6.79194
449	7.22157
450	6.2055
451	5.90191
452	6.19432
453	8.26524
454	12.40226
455	8.297
456	9.61764
457	10.37698
458	8.64796
459	11.67805
460	10.01987
461	8.15016
462	9.2802
463	9.04528
464	8.53067
465	8.40362
466	7.69108
467	8.91642
468	11.7546
469	8.71016
470	8.17613
471	5.98843
472	7.05228
473	7.96542
474	8.43822
475	6.46176
476	6.75968
477	7.94254
478	8.9797
479	9.22594
480	5.58453
481	9.06667
482	7.06537
483	5.21566
484	5.5973
485	4.72529
486	6.65889
487	5.32263
488	5.77954
489	13.46182
490	6.36194
491	4.7082
492	8.98832
493	4.68312
494	4.76398
495	6.01214
496	5.23049
497	7.6806
498	8.18778
499	5.03054
500	3.97358
501	7.60758
502	3.78028
503	4.42767
504	8.01285
505	6.12233
506	4.61875
507	5.0773
508	5.5662
509	10.61861
510	11.6434
511	5.65392
512	5.42467
513	9.63519
514	6.89996
515	7.80367
516	7.53905
517	7.69703
518	9.19832
519	6.72044
520	12.64199
521	9.16072
522	11.5798
523	8.78907
524	9.50465
525	37.28885
526	12.94201
527	14.32337
528	11.13622
529	16.82086
530	11.50593
531	10.33714
532	10.79429
533	13.42108
534	9.95976
535	13.95941
536	16.32516
537	24.26704
538	10.51457
539	10.55786
540	10.41259
541	9.71329
542	9.15061
543	10.2115
544	9.87695
545	10.4873
546	25.2472
547	9.62255
548	11.00051
549	11.67173
550	11.37828
551	7.8239
552	8.40037
553	7.87451
554	7.3574
555	10.44593
556	9.54656
557	7.48467
558	10.84359
559	7.88486
560	6.71102
561	7.4795
562	6.43756
563	7.10396
564	7.32567
565	5.23354
566	6.1948
567	6.39818
568	4.73158
569	8.07612
570	3.9363
571	4.786
572	5.34505
573	4.2731
574	3.92072
575	5.47473
576	4.96706
577	5.77132
578	4.68368
579	3.65908
580	4.83969
581	4.57131
582	10.74588
583	4.342
584	4.39668
585	8.18464
586	3.93488
587	4.91362
588	3.02553
589	3.1527
590	5.67785
591	4.70604
592	4.77213
593	4.92296
594	9.71624
595	5.58384
596	6.07193
597	11.19285
598	11.81194
599	4.80944
600	7.60582
601	7.92465
602	12.43912
603	5.73105
604	7.502
605	14.47665
606	5.45141
607	5.16849
608	7.95335
609	7.62404
610	7.01524
611	6.33677
612	5.68256
613	6.6891
614	29.21654
615	9.14469
616	5.62146
617	8.39353
618	6.80627
619	6.15435
620	6.4493
621	6.81689
622	7.59334
623	13.34241
624	18.95275
625	16.41179
626	19.93049
627	22.73704
628	21.1404
629	18.1777
630	13.2961
631	14.3663
632	38.07047
633	14.89514
634	16.40166
635	12.43497
636	11.7525
637	12.20515
638	11.89048
639	11.70859
640	17.82504
641	12.80656
642	15.60163
643	14.50486
644	16.74074
645	37.989
646	19.2372
647	19.46336
648	20.77316
649	19.99773
650	25.46688
651	31.1702
652	42.14773
653	63.27556
654	181.86058
655	618.86166
656	390.72235
657	79.31302
658	36.37747
659	27.85929
660	17.63634
661	12.30303
662	11.34462
663	20.06012
664	8.32141
665	9.05112
666	5.93098
667	6.74382
668	5.823
669	5.79979
670	4.85945
671	5.74662
672	3.52374
673	5.25799
674	3.67166
675	11.31163
676	7.93357
677	6.89158
678	10.61424
679	6.52215
680	3.13166
681	3.69138
682	7.44675
683	3.08864
684	6.08489
685	13.20423
686	2.72328
687	2.80481
688	2.25919
689	1.18923
690	5.90058
691	1.59503
692	1.18641
693	4.28376
694	2.13359
695	5.97277
696	1.11127
697	-0.23097
698	1.22814
699	2.9335
700	0.19708
701	1.54215
702	1.36286
703	0.76245
704	0.93898
705	6.77972
706	1.20903
707	1.00255
708	1.15563
709	-0.47778
710	0.30368
711	5.04937
712	0.70425
713	7.05223
714	-3.82192
715	13.6742
716	2.17722
717	1.85555
718	1.05919
719	5.57657
720	0.38198
721	1.0895
722	-0.01833
723	2.16375
724	0.08887
725	3.1307
726	2.1282
727	2.40105
728	-0.00029
729	0.26488
730	20.9479
731	3.49749
732	1.64846
733	0.75846
734	-0.53523
735	3.67296
736	2.52895
737	5.52626
738	1.97844
739	2.87071
740	0.10046
741	17.68401
742	0.48398
743	6.12901
744	4.00755
745	0.76779
746	3.80514
747	3.55075
748	7.40693
749	2.88429
750	1.31251
751	1.2229
752	0.80869
753	2.25555
754	-0.32047
755	5.17376
756	1.05639
757	11.87282
758	11.10923
759	8.82218
760	0.64367
761	1.07729
762	9.16651
763	0.39887
764	0.79819
765	5.89344
766	2.49095
767	9.98398
768	-0.3973
769	1.66604
770	0.1873
771	0.49958
772	2.26601
773	0.42888
774	0.94293
775	-1.04013
776	11.98353
777	1.19339
778	1.46511
779	0.25952
780	1.62312
781	2.48043
782	-0.08582
783	4.36687
784	3.18912
785	-0.37498
786	3.32955
787	1.08624
788	8.88204
789	0.06304
790	1.04207
791	-0.12173
792	0.33469
793	1.4091
794	0.44295
795	0.18926
796	-0.18826
797	0.86571
798	0.48782
799	1.82641
800	2.09874
801	0.00338
802	1.27873
803	8.66147
804	0.70004
805	-0.35593
806	2.29069
807	1.37476
808	1.46909
809	1.00435
810	3.81803
811	10.95281
812	10.07511
813	0.23723
814	0.79119
815	1.52386
816	1.16075
817	4.3511
818	2.11892
819	0.41897
820	-0.04532
821	15.10838
822	2.4671
823	-0.05782
824	1.93164
825	0.77352
826	0.77282
827	0.43701
828	0.93361
829	-0.45789
830	1.78133
831	1.64468
832	-0.56977
833	2.27032
834	0.8792
835	2.2827
836	0.54873
837	-0.72213
838	0.90744
839	2.01845
840	7.98783
841	1.42485
842	2.57385
843	0.88466
844	1.84301
845	0.34443
846	-0.36174
847	3.20486
848	0.94683
849	-0.3111
850	1.17152
851	0.25274
852	0.12572
853	0.12425
854	-0.2608
855	0.09739
856	3.42353
857	1.07408
858	0.72319
859	0.71903
860	0.46771
861	0.92978
862	3.75415
863	0.82127
864	0.20715
865	2.75762
866	5.22462
867	2.0216
868	0.5399
869	3.83485
870	1.09661
871	7.2446
872	12.63963
873	-0.27305
874	0.53381
875	2.05828
876	4.62054
877	0.07912
878	-0.17241
879	5.13771
880	2.47025
881	1.07422
882	3.3397
883	0.48483
884	3.94125
885	-0.43621
886	-0.70339
887	4.96877
888	2.38056
889	0.04429
890	-0.03505
891	2.52071
892	6.71211
893	2.77637
894	10.11628
895	3.32876
896	2.38026
897	0.55095
898	0.97229
899	1.08942
900	4.72185
901	32.23166
902	1.48278
903	-0.81638
904	0.31693
905	0.66605
906	1.49335
907	-0.4793
908	13.209
909	1.93241
910	-0.29866
911	-0.00514
912	0.01678
913	1.13122
914	0.83528
915	1.20683
916	0.10734
917	1.88138
918	0.96327
919	0.49116
920	-1.20331
921	3.93345
922	4.78968
923	2.61964
924	2.05956
925	1.02318
926	-0.05508
927	1.58593
928	0.19912
929	1.49312
930	1.36084
931	0.41882
932	1.33994
933	1.03084
934	2.82464
935	1.89763
936	-0.08414
937	0.53186
938	2.39261
939	4.07737
940	0.57295
941	0.82821
942	-0.05765
943	0.42897
944	0.54379
945	12.4749
946	-0.69741
947	2.43081
948	3.00911
949	1.19974
950	4.53115
951	3.01394
952	-0.0164
953	0.59357
954	1.51325
955	0.72831
956	0.18943
957	0.46142
958	1.77535
959	0.90067
960	0.64521
961	-0.05458
962	-0.05203
963	2.98191
964	0.60732
965	0.48642
966	-0.95466
967	0.39156
968	0.61659
969	6.11943
970	-0.28655
971	3.0368
972	-0.65535
973	2.89101
974	3.6473
975	0.47125
976	2.73619
977	2.56463
978	9.92488
979	1.90175
980	1.98637
981	1.83742
982	2.50994
983	-0.37116
984	8.47627
985	0.40197
986	4.62511
987	1.53737
988	5.18943
989	0.70829
990	-0.12931
991	0.15603
992	7.52521
993	1.77399
994	2.2661
995	0.18699
996	0.8063
997	4.18205
998	2.19431
999	6.20072
1000	-0.09864
