Data from 29_USB2G479881__0__16-57-08-476.txt Node

Date: Thu Feb 26 16:57:08 GMT 2026
User: Student
Spectrometer: USB2G47988
Scans to average: 40
Trigger mode: 4
Integration Time (sec): 2.000000E-1
Electric dark correction enabled: true
Boxcar width: 0
XAxis mode: Wavelengths
Number of Pixels in Spectrum: 651
>>>>>Begin Spectral Data<<<<<
350	-0.42668
351	-0.32552
352	0.80121
353	-0.69898
354	0.64997
355	0.5559
356	0.3137
357	-0.08258
358	-0.33273
359	-0.03131
360	-0.12423
361	3.19229
362	3.21743
363	-0.37057
364	-0.98354
365	4.93154
366	3.82237
367	1.99366
368	5.64231
369	2.64079
370	0.79916
371	3.06144
372	1.91952
373	1.54451
374	1.61502
375	2.38854
376	1.36319
377	8.62346
378	2.43867
379	2.04502
380	3.03866
381	2.35517
382	5.77768
383	1.1016
384	6.29861
385	2.55626
386	5.94657
387	3.63524
388	7.25292
389	5.16624
390	2.63492
391	2.39732
392	2.67409
393	6.3568
394	6.19839
395	2.57215
396	2.47061
397	9.19683
398	9.64868
399	4.60356
400	4.48234
401	6.42519
402	4.21582
403	4.30243
404	2.37099
405	2.41244
406	11.03276
407	3.13586
408	4.52949
409	3.26758
410	5.49688
411	2.69848
412	3.14149
413	2.82844
414	3.40244
415	3.18231
416	4.2051
417	3.75347
418	3.41676
419	3.1608
420	3.14872
421	4.43781
422	6.9578
423	3.03802
424	4.27734
425	23.58359
426	5.5088
427	3.2469
428	3.80294
429	10.45847
430	7.02054
431	8.00148
432	3.05232
433	6.70617
434	3.58092
435	2.68756
436	9.71108
437	4.05264
438	5.92691
439	15.53598
440	6.00806
441	2.70816
442	4.14885
443	8.30464
444	3.98906
445	-2.8509
446	16.47327
447	3.46846
448	5.5188
449	5.81276
450	4.20309
451	4.37262
452	3.02767
453	4.99338
454	9.22064
455	3.85293
456	4.3271
457	4.1906
458	2.84712
459	6.70411
460	3.83353
461	3.06426
462	3.74852
463	3.8322
464	3.80089
465	4.2479
466	3.53911
467	4.79968
468	9.08203
469	5.56739
470	4.16099
471	2.74791
472	2.89932
473	4.30825
474	4.06713
475	2.34772
476	3.4695
477	4.8573
478	4.89318
479	4.50281
480	2.84254
481	7.00159
482	4.47607
483	3.26162
484	2.64589
485	2.66449
486	3.47827
487	3.01186
488	2.65077
489	12.14243
490	4.14343
491	2.27319
492	7.45583
493	2.74176
494	2.84493
495	3.90317
496	2.19305
497	5.27811
498	6.79132
499	3.77881
500	2.97033
501	7.08609
502	2.19667
503	2.33046
504	6.34253
505	3.31328
506	1.68276
507	2.0517
508	3.17834
509	9.11371
510	8.70169
511	1.72576
512	1.94799
513	5.54746
514	3.74827
515	3.135
516	2.4897
517	1.6282
518	4.09919
519	1.94983
520	7.84347
521	2.99094
522	4.69017
523	3.04581
524	2.79037
525	27.42077
526	7.29203
527	6.94574
528	3.40723
529	9.47742
530	3.88418
531	2.91529
532	2.43068
533	5.66198
534	2.10842
535	6.58982
536	8.74232
537	17.13144
538	3.60208
539	3.21402
540	2.69431
541	2.01488
542	2.44543
543	2.0489
544	3.41283
545	3.14503
546	17.31178
547	3.41941
548	4.56593
549	5.13055
550	4.6067
551	2.46394
552	2.37337
553	1.93665
554	2.38756
555	4.58229
556	3.89547
557	2.12468
558	5.71913
559	3.36935
560	1.95269
561	2.27023
562	1.94255
563	2.73402
564	4.23846
565	2.28996
566	2.25099
567	1.82042
568	1.92588
569	3.36134
570	1.15227
571	1.3203
572	1.66036
573	1.1516
574	0.9889
575	1.70881
576	1.52351
577	2.373
578	1.45336
579	1.08062
580	1.84998
581	1.57729
582	7.54351
583	2.36465
584	0.04768
585	6.2939
586	0.93363
587	1.38508
588	0.89716
589	1.84281
590	3.58743
591	0.24859
592	1.50294
593	1.17384
594	7.44534
595	1.66618
596	3.87679
597	7.27513
598	8.34569
599	1.79091
600	4.11809
601	5.49132
602	7.55463
603	2.06121
604	3.43719
605	9.39307
606	1.67505
607	1.65692
608	3.21243
609	3.36485
610	1.66312
611	1.65044
612	0.64623
613	1.82595
614	22.36803
615	3.94356
616	0.83149
617	4.16756
618	2.7499
619	1.47274
620	2.34181
621	2.17344
622	1.2466
623	2.04825
624	0.93618
625	1.61919
626	1.16343
627	3.73958
628	6.82795
629	4.6779
630	1.56324
631	3.00626
632	22.49129
633	3.44175
634	4.40713
635	2.32627
636	1.1358
637	2.12864
638	0.88076
639	2.69518
640	7.01227
641	2.00107
642	2.49455
643	2.21317
644	1.43025
645	22.79045
646	8.4855
647	4.16261
648	5.24662
649	3.77434
650	6.00509
651	5.98542
652	5.05905
653	11.68929
654	31.15475
655	208.87386
656	118.01777
657	27.33003
658	12.42256
659	12.40476
660	6.46804
661	3.06574
662	2.44863
663	11.93309
664	1.22375
665	2.0856
666	1.68823
667	1.80289
668	1.11812
669	1.6278
670	1.01942
671	1.58059
672	1.11226
673	1.74111
674	0.63637
675	9.21114
676	5.06428
677	4.72013
678	7.36038
679	4.43643
680	1.46273
681	1.64934
682	5.59955
683	1.66934
684	4.82029
685	13.17463
686	1.92058
687	1.19546
688	0.87587
689	0.66249
690	4.37978
691	0.36762
692	0.34293
693	3.30644
694	0.35071
695	4.55746
696	0.50872
697	-0.50479
698	0.095
699	1.76415
700	-0.0042
701	-0.04451
702	0.91059
703	-0.08528
704	1.46975
705	6.21141
706	0.81335
707	-0.04062
708	0.07811
709	-0.85693
710	0.00396
711	4.46314
712	0.75593
713	7.64566
714	-4.97908
715	11.78915
716	1.41396
717	0.75962
718	1.05412
719	5.02457
720	-0.51989
721	-0.43172
722	-0.0201
723	2.32047
724	-0.27466
725	2.45698
726	0.95047
727	2.0522
728	0.02276
729	-0.4027
730	19.45939
731	3.24064
732	1.59764
733	0.58495
734	-0.79044
735	4.10181
736	3.24221
737	6.40391
738	1.63236
739	2.00273
740	0.56759
741	18.40254
742	1.1708
743	6.46586
744	4.23412
745	1.00894
746	3.64458
747	3.79754
748	7.44728
749	1.96863
750	0.21832
751	1.79863
752	0.56388
753	1.39993
754	-0.08359
755	4.74722
756	1.41879
757	11.46479
758	11.00317
759	9.08465
760	1.09267
761	1.43659
762	28.86311
763	1.12183
764	0.26592
765	9.53369
766	3.08231
767	9.65777
768	0.17019
769	1.25634
770	-0.63549
771	0.40514
772	2.89921
773	-0.91475
774	1.18277
775	-1.07802
776	9.7868
777	1.64136
778	1.43702
779	-0.06698
780	0.33629
781	1.90771
782	0.02367
783	4.72231
784	3.25906
785	-0.60457
786	3.5559
787	0.7209
788	8.96826
789	0.23446
790	0.51046
791	-1.39478
792	-0.04002
793	1.16759
794	-0.02963
795	0.5969
796	0.7281
797	1.28789
798	0.81625
799	1.59401
800	1.7367
801	0.53615
802	0.61736
803	8.80958
804	0.57427
805	0.20942
806	1.47137
807	1.88082
808	1.82012
809	0.76278
810	4.64544
811	11.30475
812	9.86929
813	-0.13376
814	1.33004
815	1.77928
816	0.4337
817	3.85776
818	1.13703
819	-0.19584
820	0.15315
821	15.34352
822	2.49215
823	-0.74402
824	2.44211
825	-0.09887
826	1.31687
827	0.28034
828	1.20197
829	0.51673
830	1.8101
831	1.42329
832	0.01007
833	1.39595
834	0.26362
835	2.17023
836	0.18559
837	-0.57038
838	0.78704
839	2.07888
840	8.04942
841	1.47589
842	2.08104
843	1.17108
844	1.29374
845	-0.23392
846	-1.47749
847	8.27469
848	0.73652
849	0.08542
850	1.27951
851	0.41542
852	-0.28492
853	-0.35854
854	0.06196
855	0.24655
856	4.04786
857	0.35623
858	-0.02769
859	0.76361
860	0.65049
861	0.87223
862	4.76165
863	-0.11062
864	0.62596
865	3.21927
866	4.79686
867	2.38796
868	0.72013
869	4.19623
870	1.65631
871	6.79695
872	13.60556
873	0.28065
874	0.63925
875	1.78149
876	4.55984
877	1.07522
878	-0.7969
879	4.3866
880	2.57572
881	1.5537
882	3.12891
883	-0.29612
884	3.47047
885	-0.60533
886	-0.60693
887	6.3821
888	2.31862
889	1.14632
890	1.02051
891	2.85185
892	6.30322
893	2.84668
894	10.40501
895	3.27672
896	2.27424
897	-0.57255
898	1.55102
899	0.32728
900	4.64821
901	32.47975
902	1.35781
903	-0.05792
904	-0.1092
905	1.42694
906	1.55998
907	-0.39259
908	13.27916
909	2.60569
910	-0.67854
911	-0.24799
912	-0.24373
913	1.24379
914	0.42158
915	1.65909
916	0.31178
917	2.13359
918	0.82889
919	0.67205
920	-0.68993
921	3.67726
922	5.012
923	2.88931
924	1.91886
925	0.70451
926	0.02735
927	1.57305
928	-0.16724
929	1.00975
930	0.2374
931	1.13479
932	1.06646
933	0.58954
934	2.48522
935	1.88256
936	0.97908
937	0.38726
938	3.1148
939	4.43832
940	0.98484
941	0.65728
942	0.5956
943	0.83111
944	0.72242
945	12.91343
946	0.05513
947	2.75264
948	2.15294
949	2.0444
950	4.44059
951	2.56739
952	0.33347
953	0.8905
954	1.99368
955	0.8372
956	0.77349
957	0.34029
958	1.60037
959	0.67014
960	0.66103
961	0.03619
962	-0.05284
963	2.2052
964	-0.29265
965	-0.14492
966	-0.86302
967	-0.41556
968	-0.20923
969	6.45374
970	-0.46835
971	2.32929
972	-0.5197
973	2.64427
974	6.09746
975	0.15147
976	3.27813
977	2.06367
978	21.78304
979	1.23656
980	1.67114
981	1.6389
982	2.8496
983	-0.44476
984	9.04708
985	0.50224
986	4.71653
987	-0.02709
988	4.9379
989	0.88766
990	0.66906
991	-0.27167
992	6.99426
993	1.00052
994	2.75401
995	0.30322
996	0.62633
997	3.79809
998	4.33158
999	6.72584
1000	-0.66254
