Data from 39_USB2G479881__0__17-06-18-268.txt Node

Date: Thu Feb 26 17:06:18 GMT 2026
User: Student
Spectrometer: USB2G47988
Scans to average: 40
Trigger mode: 4
Integration Time (sec): 2.000000E-1
Electric dark correction enabled: true
Boxcar width: 0
XAxis mode: Wavelengths
Number of Pixels in Spectrum: 651
>>>>>Begin Spectral Data<<<<<
350	-0.52425
351	-0.55502
352	1.25132
353	-0.52343
354	0.35138
355	0.51343
356	0.75543
357	0.66779
358	0.22179
359	-0.195
360	0.28623
361	3.10576
362	3.97084
363	0.51758
364	-0.30331
365	5.58728
366	3.11353
367	2.61756
368	6.20596
369	3.75822
370	1.54303
371	3.4338
372	3.03556
373	2.40489
374	3.08004
375	1.75816
376	1.51098
377	9.44867
378	3.3294
379	2.41796
380	3.38334
381	3.0957
382	6.40522
383	1.37766
384	7.75222
385	3.32541
386	6.87612
387	3.81054
388	7.81194
389	5.87432
390	2.33083
391	2.59943
392	3.26075
393	7.28753
394	6.28764
395	3.03905
396	2.52171
397	9.44084
398	10.15129
399	5.3746
400	4.61091
401	7.27604
402	4.52554
403	5.05623
404	2.66703
405	2.24539
406	10.41374
407	3.01673
408	5.45495
409	4.02711
410	4.57273
411	3.46461
412	4.53547
413	3.23356
414	3.29844
415	2.74991
416	4.3877
417	3.67831
418	4.47585
419	2.97888
420	3.60997
421	5.26857
422	7.73204
423	4.12247
424	5.0089
425	24.57876
426	5.86311
427	4.06863
428	2.89684
429	10.64531
430	7.3272
431	8.90282
432	4.06534
433	5.69584
434	3.80612
435	3.58462
436	11.34354
437	4.56541
438	6.92063
439	15.83045
440	7.19401
441	3.48498
442	4.25881
443	8.13679
444	3.96516
445	-1.88106
446	17.28997
447	4.11888
448	5.80984
449	5.76659
450	3.96859
451	3.61797
452	3.64992
453	5.27979
454	10.18538
455	4.36655
456	4.78558
457	4.4072
458	2.93967
459	5.8891
460	4.33863
461	2.55164
462	3.69714
463	3.2317
464	2.93487
465	4.75988
466	3.12342
467	4.55225
468	9.30098
469	5.79454
470	4.48975
471	2.83642
472	2.78966
473	4.31978
474	4.32602
475	2.69195
476	3.59648
477	4.5986
478	4.3404
479	5.85493
480	2.39632
481	7.80041
482	4.21163
483	3.00427
484	2.63682
485	2.40192
486	4.36131
487	3.66286
488	3.25961
489	13.63153
490	4.16412
491	2.49397
492	6.57015
493	3.67451
494	2.81661
495	3.80568
496	3.50027
497	6.51811
498	7.16154
499	4.67893
500	2.81083
501	6.62415
502	2.24308
503	2.88328
504	6.95598
505	4.92012
506	2.34535
507	2.04805
508	3.79716
509	10.16659
510	9.92386
511	1.87638
512	2.37517
513	5.56616
514	3.86691
515	3.73467
516	5.62155
517	5.27735
518	5.71064
519	2.6926
520	7.3855
521	3.07755
522	5.79911
523	2.88948
524	2.58952
525	28.75386
526	6.88986
527	6.80693
528	3.56392
529	9.23321
530	3.97568
531	2.88302
532	2.79793
533	5.71511
534	3.13611
535	6.33392
536	8.13106
537	17.28446
538	4.445
539	2.64702
540	2.82176
541	2.25338
542	2.83942
543	2.88769
544	2.67908
545	3.37304
546	16.21773
547	3.4942
548	4.13293
549	4.02715
550	5.07402
551	2.50319
552	2.62898
553	1.03342
554	2.63122
555	4.62126
556	4.31424
557	3.06951
558	5.57865
559	3.67525
560	2.5542
561	2.70442
562	2.73883
563	3.20305
564	4.56458
565	2.09099
566	3.72798
567	3.21994
568	1.96954
569	4.46492
570	1.22431
571	1.84879
572	1.69203
573	2.09935
574	1.4314
575	2.48895
576	1.71491
577	2.20841
578	2.81448
579	1.68055
580	3.13322
581	2.62344
582	7.64089
583	2.86772
584	0.79051
585	6.20175
586	1.7962
587	2.10265
588	1.42975
589	1.85886
590	4.71687
591	1.63127
592	1.66272
593	1.87084
594	7.70051
595	2.00875
596	3.51851
597	6.41981
598	8.50662
599	1.71752
600	3.2573
601	5.23232
602	7.61425
603	2.692
604	3.13927
605	9.89851
606	3.08333
607	1.76312
608	3.70257
609	3.83259
610	2.06329
611	1.91205
612	0.65878
613	1.83631
614	23.36505
615	3.82409
616	2.17141
617	3.94228
618	3.22336
619	1.99781
620	1.80541
621	1.66989
622	0.46253
623	1.44753
624	0.94616
625	1.59378
626	1.02351
627	2.7363
628	5.90818
629	5.15907
630	1.37899
631	2.48247
632	23.89484
633	3.46072
634	4.24061
635	0.44924
636	0.70221
637	1.64433
638	1.0137
639	1.30548
640	8.63166
641	0.97461
642	2.55217
643	2.53263
644	1.46132
645	25.05382
646	8.62639
647	4.49254
648	5.14328
649	2.38736
650	4.9805
651	4.6485
652	5.12973
653	10.4236
654	15.33087
655	217.38952
656	323.86936
657	39.23777
658	14.40912
659	14.29657
660	5.68179
661	2.95012
662	1.29765
663	12.71873
664	1.9953
665	0.90526
666	1.10672
667	1.0256
668	1.56099
669	0.85494
670	0.58164
671	1.07158
672	1.0578
673	1.79634
674	1.5064
675	9.61544
676	5.01477
677	6.2767
678	8.51646
679	4.92101
680	1.30722
681	2.24525
682	5.78124
683	1.14126
684	5.27502
685	12.74025
686	1.80282
687	1.21286
688	1.77862
689	0.69347
690	4.2796
691	1.74442
692	0.34085
693	3.43325
694	1.03334
695	5.07645
696	1.16694
697	-0.12543
698	-0.22823
699	2.06875
700	0.14925
701	0.17226
702	1.26575
703	0.06088
704	1.742
705	6.60844
706	2.04395
707	1.04596
708	0.55551
709	-0.3115
710	0.40006
711	4.72051
712	0.78949
713	7.30063
714	-4.05546
715	14.00926
716	2.22621
717	1.76404
718	0.37444
719	5.69317
720	1.22929
721	0.15997
722	0.61328
723	2.09041
724	0.20519
725	3.67707
726	1.42406
727	3.15682
728	0.40642
729	-0.59512
730	19.52811
731	3.79141
732	0.89447
733	1.14157
734	0.54791
735	4.0527
736	2.25495
737	6.79778
738	2.20208
739	3.58228
740	0.77886
741	18.14379
742	0.95429
743	6.54737
744	4.50973
745	0.84566
746	4.2624
747	3.72118
748	7.04882
749	3.03077
750	1.68906
751	2.71071
752	0.40267
753	1.64864
754	0.63174
755	4.24032
756	0.77085
757	11.03556
758	11.63411
759	9.14088
760	0.96978
761	1.84273
762	27.44498
763	1.43487
764	1.19931
765	10.32992
766	3.79478
767	10.12178
768	0.64242
769	1.40758
770	0.11461
771	1.24934
772	3.77649
773	-0.62884
774	0.91315
775	-0.28346
776	11.8578
777	1.5465
778	1.38857
779	0.31022
780	1.03995
781	1.87947
782	-0.05502
783	5.88029
784	3.03431
785	0.17672
786	3.47234
787	0.53151
788	10.43479
789	1.06157
790	0.90272
791	-0.22352
792	1.13358
793	1.14391
794	1.09533
795	1.07814
796	1.24733
797	1.97369
798	1.3213
799	1.60976
800	1.95518
801	0.7865
802	0.79807
803	9.54076
804	0.416
805	0.14716
806	2.71611
807	2.04955
808	2.35104
809	2.4681
810	4.39482
811	10.88796
812	11.47357
813	0.50201
814	1.77196
815	2.33879
816	1.58495
817	4.39574
818	1.5216
819	0.58706
820	0.67676
821	16.24513
822	3.47648
823	0.19895
824	2.13557
825	0.74855
826	1.70761
827	-0.35241
828	0.80173
829	0.13338
830	2.01992
831	0.87225
832	0.66234
833	2.38226
834	0.25754
835	2.90626
836	1.00923
837	0.18896
838	1.42248
839	1.99874
840	7.15905
841	2.303
842	2.76832
843	1.60673
844	1.77208
845	0.35544
846	-0.57026
847	9.46443
848	1.1723
849	0.32926
850	1.47468
851	-0.70065
852	0.02616
853	0.07124
854	-0.1506
855	-0.3315
856	3.32424
857	0.52744
858	0.1834
859	1.44208
860	1.03065
861	1.79352
862	4.88658
863	1.02939
864	-0.21379
865	3.00423
866	5.80867
867	3.3622
868	1.56685
869	4.84032
870	1.99365
871	7.5115
872	14.7413
873	-0.36732
874	0.88878
875	2.31387
876	5.21119
877	0.59878
878	-0.32324
879	5.21018
880	2.76595
881	2.03341
882	3.66127
883	-0.18771
884	3.86048
885	-0.41941
886	-0.029
887	6.45563
888	3.45763
889	0.77738
890	1.70078
891	2.6179
892	6.98411
893	3.48461
894	10.0826
895	2.98622
896	1.91862
897	-0.07356
898	1.39848
899	1.04844
900	5.66982
901	32.66793
902	1.46733
903	-0.14125
904	0.79897
905	1.13413
906	1.87506
907	-0.03741
908	12.48273
909	2.70546
910	0.45114
911	0.72334
912	0.58871
913	0.64413
914	0.61966
915	2.15234
916	1.32259
917	2.35805
918	1.69746
919	0.32234
920	-1.51958
921	4.43059
922	6.12216
923	2.94453
924	2.19145
925	1.74001
926	-0.06047
927	1.86483
928	0.57996
929	1.79118
930	0.56378
931	1.42526
932	0.94903
933	1.67725
934	3.99189
935	2.53653
936	0.66446
937	0.40638
938	4.2398
939	4.9983
940	0.74928
941	0.80572
942	0.3398
943	0.92921
944	1.11826
945	14.77331
946	0.60083
947	4.15787
948	3.79403
949	1.37336
950	4.86155
951	2.84142
952	0.38176
953	0.94651
954	1.47481
955	1.40807
956	0.64478
957	-0.01621
958	2.06869
959	0.87525
960	0.67139
961	0.34416
962	-0.17032
963	3.2293
964	0.39117
965	0.27317
966	-0.16206
967	0.41679
968	0.45809
969	6.48735
970	0.12919
971	3.62091
972	0.00403
973	2.143
974	1.5636
975	0.3608
976	3.77171
977	2.51328
978	7.83594
979	1.17509
980	2.495
981	1.93659
982	3.12956
983	0.82102
984	9.9864
985	0.87464
986	5.49934
987	1.20109
988	5.68125
989	1.56046
990	0.14928
991	0.26369
992	7.83216
993	2.13591
994	3.32057
995	0.12194
996	0.61655
997	5.42048
998	3.57628
999	7.29816
1000	0.36989
