Data from 14_USB2G479881__0__17-16-56-534.txt Node

Date: Wed Feb 18 17:16:56 GMT 2026
User: Student
Spectrometer: USB2G47988
Scans to average: 10
Trigger mode: 4
Integration Time (sec): 5.000000E-1
Electric dark correction enabled: true
Boxcar width: 0
XAxis mode: Wavelengths
Number of Pixels in Spectrum: 651
>>>>>Begin Spectral Data<<<<<
350	0.98499
351	0.37511
352	-0.28271
353	-0.4361
354	-0.64128
355	-0.80562
356	-2.02507
357	-1.13545
358	-0.29476
359	-0.20097
360	1.27583
361	5.20465
362	4.83883
363	0.90593
364	-2.68096
365	4.48885
366	8.46666
367	1.69178
368	7.82241
369	4.78776
370	-1.53816
371	5.5776
372	2.96271
373	1.97225
374	0.94272
375	2.06516
376	0.11869
377	13.76759
378	3.96855
379	1.56743
380	3.24018
381	3.4132
382	5.59364
383	-2.45807
384	6.14634
385	0.7025
386	6.76527
387	3.44387
388	14.78661
389	6.37732
390	0.60371
391	1.22771
392	1.23041
393	15.01359
394	9.73943
395	1.61035
396	1.00237
397	18.55758
398	8.47197
399	4.94841
400	6.39477
401	10.72919
402	5.4413
403	2.75666
404	2.32161
405	1.39472
406	17.8891
407	1.91271
408	4.3581
409	3.34357
410	6.77489
411	2.54931
412	4.26379
413	1.57502
414	2.39196
415	2.93496
416	5.78682
417	2.04987
418	4.69675
419	3.59593
420	1.97554
421	4.53355
422	11.44704
423	3.72239
424	5.09661
425	54.13558
426	4.00164
427	3.17289
428	2.36623
429	26.85869
430	8.92399
431	5.40808
432	2.75803
433	5.41072
434	2.75457
435	0.09726
436	11.80858
437	3.93257
438	11.7104
439	35.38338
440	5.34368
441	3.42078
442	5.77734
443	13.85596
444	4.36561
445	-5.71171
446	3.57988
447	3.35145
448	5.68832
449	10.02742
450	5.22842
451	8.55863
452	6.62448
453	5.92802
454	14.91641
455	10.04733
456	12.0627
457	12.37531
458	8.77603
459	16.23824
460	10.85437
461	9.30094
462	9.50454
463	9.11503
464	7.31091
465	9.90208
466	7.41812
467	9.66971
468	14.49519
469	9.62235
470	8.13284
471	6.9179
472	5.70509
473	9.62513
474	8.98737
475	6.65914
476	7.77149
477	9.27827
478	9.70507
479	14.68136
480	6.11122
481	8.90861
482	8.09372
483	5.00064
484	4.18844
485	3.08177
486	5.17809
487	6.80304
488	5.93629
489	15.37692
490	6.48048
491	3.92202
492	11.21882
493	6.18368
494	4.1476
495	5.71189
496	4.33387
497	8.47346
498	13.12734
499	5.16872
500	4.80273
501	11.38872
502	4.18178
503	2.63487
504	13.57837
505	7.39694
506	3.9243
507	6.00066
508	3.81691
509	-2.9968
510	18.44117
511	5.80827
512	7.76246
513	11.17302
514	9.10115
515	8.90694
516	7.74134
517	6.11814
518	6.30466
519	6.18156
520	19.98131
521	7.94773
522	13.78895
523	11.90733
524	9.35157
525	75.96722
526	14.12009
527	23.01005
528	11.83597
529	25.26881
530	13.46827
531	10.43749
532	11.14397
533	17.82612
534	8.99931
535	15.83879
536	26.87205
537	36.05021
538	11.02551
539	12.62951
540	11.5854
541	11.29941
542	8.80019
543	9.84068
544	13.08673
545	11.83234
546	53.50128
547	10.06898
548	13.01872
549	13.64473
550	14.39476
551	8.78757
552	8.4714
553	6.8124
554	7.75805
555	14.69154
556	12.95255
557	8.52235
558	12.31072
559	10.16161
560	5.69919
561	8.82398
562	5.96412
563	8.20496
564	10.46675
565	6.46126
566	7.6944
567	5.46985
568	5.76432
569	7.89009
570	6.53114
571	5.38957
572	4.75266
573	4.52788
574	2.20667
575	4.11219
576	4.6095
577	7.92867
578	6.02786
579	4.9279
580	6.82913
581	3.56774
582	20.52234
583	4.39791
584	0.27139
585	8.02316
586	3.90337
587	4.47063
588	2.86347
589	3.76337
590	8.08909
591	3.60086
592	5.5778
593	3.35298
594	9.24779
595	4.65837
596	7.76435
597	16.26998
598	15.90188
599	3.85301
600	13.23058
601	8.11378
602	18.11455
603	6.69875
604	8.42968
605	19.31121
606	4.40026
607	4.66368
608	10.52309
609	9.33948
610	4.90472
611	7.47159
612	4.5025
613	8.00172
614	67.29181
615	11.94207
616	6.78836
617	12.52356
618	7.28702
619	6.20642
620	7.78775
621	8.32409
622	7.95713
623	8.24889
624	7.63238
625	7.16908
626	8.89983
627	14.58201
628	15.43398
629	16.3614
630	9.76338
631	16.42493
632	77.40696
633	16.30027
634	21.61824
635	11.59875
636	11.51264
637	15.0681
638	15.39002
639	18.6252
640	18.46211
641	15.30003
642	23.25873
643	17.97362
644	19.25451
645	93.5099
646	23.67867
647	43.07699
648	49.01314
649	30.33554
650	47.14319
651	47.11661
652	72.04354
653	148.67768
654	792.81021
655	440.14492
656	191.47685
657	64.33281
658	47.51131
659	59.43393
660	31.79809
661	25.69171
662	27.28954
663	54.78624
664	23.2769
665	21.70673
666	14.55348
667	21.95746
668	17.37285
669	15.52389
670	13.04542
671	17.18989
672	13.64571
673	12.65885
674	11.18262
675	14.92365
676	19.62862
677	12.308
678	22.07786
679	8.26171
680	8.63955
681	6.1649
682	17.3547
683	6.72139
684	14.37413
685	31.6776
686	4.94296
687	5.18574
688	4.90426
689	4.48937
690	13.38062
691	3.48086
692	1.17335
693	4.99498
694	5.12398
695	6.19719
696	4.16041
697	1.07041
698	-0.498
699	3.23502
700	1.39815
701	1.97036
702	3.78332
703	1.25451
704	2.2659
705	15.0902
706	1.67886
707	1.10753
708	1.60085
709	0.02342
710	0.87308
711	5.68495
712	3.00151
713	15.56257
714	-11.05122
715	-15.08805
716	1.95877
717	0.87101
718	-0.54269
719	8.29144
720	-0.92967
721	2.05961
722	1.95604
723	2.09784
724	0.86086
725	0.22601
726	1.99667
727	5.14231
728	0.97555
729	-1.24513
730	56.59691
731	3.42039
732	2.52775
733	1.73675
734	-0.97005
735	9.67453
736	6.44821
737	7.76671
738	0.10555
739	1.85504
740	0.51569
741	39.56444
742	-0.03998
743	9.54523
744	7.03022
745	-1.24337
746	8.84801
747	3.71897
748	16.17762
749	2.71515
750	3.85322
751	3.00522
752	0.65265
753	0.58092
754	-1.06017
755	8.66196
756	1.88487
757	31.82056
758	17.49823
759	15.52295
760	0.96117
761	1.96958
762	77.50773
763	-2.15875
764	1.70227
765	26.39006
766	2.19201
767	18.25787
768	0.67643
769	3.26503
770	-0.87027
771	0.30387
772	1.16752
773	-0.52657
774	-0.26127
775	-2.35365
776	24.79217
777	0.37822
778	1.74314
779	0.35175
780	2.5941
781	2.17089
782	-1.63963
783	5.39925
784	4.86339
785	0.39054
786	8.13666
787	-0.18404
788	8.04139
789	-0.37267
790	-0.20481
791	-2.28268
792	-1.60415
793	0.59111
794	0.26822
795	2.15976
796	-0.38421
797	1.51073
798	-1.42133
799	1.9055
800	4.9011
801	-1.08401
802	2.46344
803	20.48511
804	-1.15927
805	-0.26052
806	0.98605
807	3.58345
808	1.6501
809	3.27719
810	7.10111
811	27.69526
812	14.09147
813	-2.00391
814	2.16143
815	1.14519
816	-0.85129
817	6.96601
818	4.48976
819	0.39568
820	-0.72457
821	40.35082
822	0.69639
823	-2.15289
824	4.14352
825	0.03411
826	1.3575
827	-0.54933
828	0.95161
829	0.01236
830	2.94181
831	4.67178
832	-1.07578
833	6.5466
834	-1.33985
835	4.80783
836	-0.31037
837	-1.50013
838	0.4183
839	2.61088
840	19.84643
841	0.48371
842	2.15946
843	-0.33988
844	3.77104
845	-2.67925
846	-1.01723
847	2.34662
848	1.9779
849	-0.71175
850	2.26746
851	-2.39126
852	-1.68409
853	-2.44062
854	-1.49489
855	-1.34111
856	7.64989
857	-0.34667
858	-0.16018
859	-2.18136
860	-1.64117
861	0.8398
862	2.52813
863	0.0323
864	-0.93055
865	3.52193
866	10.11912
867	3.60626
868	1.26284
869	5.02163
870	0.48497
871	9.56697
872	4.30506
873	-1.90287
874	0.85059
875	1.86292
876	16.92047
877	0.60477
878	-1.0616
879	10.4923
880	2.77296
881	1.13501
882	2.01979
883	-1.28864
884	2.71411
885	-3.14254
886	-10.07451
887	-0.20453
888	3.5454
889	-0.89741
890	-0.13553
891	38.07876
892	22.54424
893	5.13219
894	22.85144
895	2.78312
896	-0.52596
897	-1.08856
898	-1.02763
899	0.1201
900	5.74383
901	67.39049
902	0.6089
903	-1.93788
904	-2.10119
905	-1.23699
906	4.52122
907	-2.67449
908	32.5056
909	3.8463
910	-1.74375
911	0.95625
912	1.07938
913	1.76738
914	1.28809
915	-0.11463
916	-0.83924
917	2.0475
918	0.68765
919	-0.05189
920	-4.24033
921	2.8685
922	-0.69312
923	6.25317
924	-0.23169
925	1.16473
926	-1.20373
927	5.56698
928	-3.07375
929	1.44201
930	-0.64422
931	-2.30253
932	0.53876
933	0.07117
934	1.7186
935	-1.41368
936	-0.02397
937	-0.55136
938	3.2043
939	10.86333
940	-1.9621
941	-1.17693
942	-1.25678
943	0.33431
944	1.8013
945	6.52899
946	-3.63239
947	6.61275
948	4.36437
949	0.75614
950	14.22592
951	1.06181
952	-1.88022
953	-1.29677
954	-0.00487
955	0.49486
956	-1.41446
957	1.27184
958	2.98287
959	-1.80267
960	-0.6642
961	-1.50483
962	-3.03334
963	4.08473
964	0.08231
965	1.00195
966	-2.50691
967	-1.79196
968	1.14525
969	9.63198
970	-1.58763
971	3.78208
972	-0.65752
973	4.95918
974	0.03248
975	-0.62225
976	1.06047
977	4.90339
978	40.709
979	1.79272
980	0.53609
981	1.2874
982	3.27758
983	0.64048
984	14.84908
985	-3.15759
986	5.20603
987	0.90547
988	12.06825
989	0.82134
990	-0.40395
991	-1.22513
992	16.61193
993	-0.68351
994	0.75769
995	-1.46547
996	0.47555
997	3.7874
998	1.25652
999	14.70076
1000	-1.3754
