Data from 16_USB2G479881__0__15-14-21-444.txt Node

Date: Tue Feb 24 15:14:21 GMT 2026
User: Student
Spectrometer: USB2G47988
Scans to average: 10
Trigger mode: 4
Integration Time (sec): 8.000000E-1
Electric dark correction enabled: true
Boxcar width: 0
XAxis mode: Wavelengths
Number of Pixels in Spectrum: 651
>>>>>Begin Spectral Data<<<<<
350	1.84731
351	2.05254
352	0.77005
353	-3.19155
354	-1.47834
355	0.10466
356	-1.27192
357	-0.77189
358	-1.89323
359	-3.45616
360	1.26629
361	9.30296
362	7.93925
363	-2.6635
364	-6.7167
365	8.87823
366	11.12617
367	3.00647
368	17.34057
369	7.25471
370	-0.80989
371	11.24599
372	5.1946
373	4.21689
374	0.74159
375	3.27349
376	0.62132
377	26.09837
378	3.43092
379	-1.56657
380	5.47654
381	-0.39793
382	12.55768
383	-4.85696
384	12.62156
385	2.73121
386	10.67854
387	3.19996
388	25.53477
389	9.746
390	-0.49921
391	1.53854
392	1.37947
393	20.59713
394	14.63299
395	-0.57148
396	-0.98257
397	31.09766
398	15.14
399	7.28078
400	9.20668
401	18.12877
402	5.35145
403	4.50409
404	0.45571
405	-0.55282
406	29.44231
407	-0.95494
408	5.7317
409	0.45508
410	10.92067
411	3.75819
412	1.95435
413	-0.85537
414	1.29659
415	-0.18911
416	3.99463
417	3.10382
418	5.18036
419	1.26705
420	2.18174
421	7.88416
422	17.36212
423	4.59424
424	6.70436
425	122.58808
426	8.03803
427	1.53827
428	0.30313
429	36.81685
430	16.51156
431	8.23022
432	2.4101
433	7.25037
434	2.84669
435	-1.85702
436	21.21634
437	5.36301
438	16.32443
439	72.51966
440	7.14146
441	-0.01776
442	7.93839
443	24.6683
444	5.73176
445	-21.88145
446	-4.8463
447	3.87997
448	5.89521
449	17.78638
450	8.23623
451	9.29464
452	6.16599
453	11.39613
454	23.75883
455	11.9962
456	20.51311
457	17.60471
458	11.67958
459	26.49036
460	14.3832
461	10.98883
462	14.20899
463	11.43569
464	12.70155
465	12.48729
466	10.52261
467	15.47365
468	24.59077
469	15.62609
470	13.39624
471	8.3359
472	10.2935
473	16.53986
474	14.35428
475	9.69903
476	11.46712
477	14.79587
478	16.14271
479	18.74729
480	7.09958
481	13.34127
482	14.54993
483	8.02383
484	7.38366
485	4.74958
486	10.94788
487	8.09514
488	8.46967
489	29.28483
490	12.48371
491	5.24082
492	19.50721
493	7.97298
494	5.84535
495	7.42212
496	4.42799
497	16.39409
498	25.65536
499	7.52908
500	3.81709
501	18.68845
502	3.05459
503	5.46999
504	24.11585
505	11.10315
506	6.62958
507	5.94449
508	6.25106
509	-10.30936
510	37.43441
511	6.82669
512	8.41636
513	24.54415
514	16.35108
515	15.82036
516	14.94754
517	9.64852
518	15.31746
519	14.16043
520	36.0665
521	17.09727
522	22.95828
523	20.34902
524	21.18984
525	163.82341
526	27.80066
527	40.02169
528	22.69174
529	50.64009
530	27.36837
531	24.00444
532	22.23628
533	35.76393
534	18.18774
535	32.62116
536	57.60188
537	68.19684
538	22.58643
539	22.87272
540	26.36966
541	22.0147
542	18.70403
543	23.64141
544	21.75202
545	25.35619
546	112.72257
547	20.5492
548	25.06547
549	30.22509
550	28.975
551	20.68851
552	16.28618
553	16.92236
554	16.15648
555	29.84415
556	22.15815
557	15.50527
558	27.51707
559	18.24162
560	14.3902
561	20.28245
562	13.25863
563	19.5416
564	20.5428
565	13.35065
566	14.98269
567	13.58347
568	9.54909
569	17.47092
570	9.60611
571	10.37224
572	11.93615
573	9.22599
574	8.77244
575	10.70854
576	7.5531
577	12.10887
578	11.04616
579	8.15759
580	11.65257
581	9.23269
582	43.74655
583	11.24631
584	3.5035
585	15.92961
586	6.74543
587	11.3856
588	6.75984
589	7.21098
590	16.75154
591	8.20623
592	14.72867
593	9.86266
594	22.57269
595	10.50191
596	16.93827
597	36.85145
598	36.01212
599	12.34973
600	31.50769
601	21.20719
602	41.09606
603	15.37666
604	22.47068
605	42.40317
606	18.24514
607	15.51255
608	29.2921
609	25.14847
610	20.05627
611	18.37421
612	17.17538
613	20.83825
614	167.02653
615	30.24205
616	18.87246
617	34.94335
618	25.29775
619	21.93635
620	22.9126
621	23.24615
622	22.81614
623	26.52261
624	25.84954
625	30.4913
626	31.04316
627	35.94537
628	46.22927
629	46.60857
630	35.12158
631	40.18841
632	188.75494
633	49.90481
634	72.68235
635	43.64209
636	48.55983
637	54.04218
638	61.62995
639	68.37426
640	64.98776
641	87.38666
642	85.85622
643	87.05444
644	105.24614
645	213.23306
646	113.6635
647	162.32701
648	165.28116
649	161.52656
650	187.6495
651	236.83099
652	265.7664
653	482.58887
654	2791.67504
655	3936.83265
656	3911.36047
657	699.05919
658	263.15439
659	219.09729
660	148.70928
661	111.27936
662	117.26652
663	162.1204
664	86.10772
665	82.40687
666	61.22239
667	63.30824
668	64.96614
669	57.38128
670	51.58602
671	51.86905
672	40.69518
673	42.93689
674	29.45384
675	42.89453
676	52.98689
677	30.12155
678	52.85504
679	23.35759
680	30.35002
681	23.48384
682	43.37698
683	18.9704
684	36.19598
685	78.8085
686	13.76139
687	11.61513
688	11.29971
689	10.92042
690	29.87479
691	9.8437
692	7.72911
693	18.04368
694	9.45879
695	19.92608
696	8.29085
697	4.21903
698	6.7035
699	10.79869
700	4.2868
701	4.94915
702	6.93956
703	4.22253
704	6.53331
705	31.85585
706	5.17064
707	1.6758
708	4.36846
709	2.85779
710	2.97084
711	16.05842
712	5.96186
713	35.54684
714	-20.10561
715	-44.16378
716	7.95965
717	4.04571
718	1.51694
719	18.4085
720	2.15965
721	2.67945
722	1.31492
723	5.95613
724	0.35765
725	6.47834
726	2.85948
727	7.91975
728	2.00845
729	-1.64861
730	130.49797
731	8.14337
732	5.0482
733	2.1445
734	0.98156
735	17.05414
736	7.62463
737	15.43988
738	2.36152
739	6.69311
740	0.91432
741	81.21316
742	-0.1245
743	15.98085
744	15.16856
745	2.15892
746	18.12558
747	9.93626
748	31.32426
749	9.12695
750	5.39806
751	4.75036
752	0.59727
753	2.05606
754	-1.25811
755	18.31168
756	2.16537
757	68.07159
758	35.13805
759	31.72938
760	-0.06911
761	2.93689
762	45.92338
763	-2.23882
764	0.50103
765	22.26235
766	4.48467
767	38.31105
768	-0.85779
769	3.75708
770	-2.74219
771	-0.19156
772	4.85359
773	-2.82148
774	2.37874
775	-4.2625
776	53.97036
777	1.49202
778	4.56178
779	-2.23291
780	2.14788
781	6.05336
782	-2.82596
783	11.59655
784	10.67608
785	-3.10311
786	12.49191
787	-1.25569
788	13.47037
789	0.02473
790	0.6203
791	-3.11989
792	-1.75521
793	3.1952
794	-1.8695
795	-0.81779
796	3.26944
797	4.18837
798	-1.841
799	2.70892
800	5.66029
801	-1.14523
802	1.08714
803	36.11903
804	-2.36141
805	-4.40227
806	2.75762
807	4.37639
808	3.92787
809	1.87942
810	13.38723
811	58.74103
812	29.87198
813	-2.14092
814	3.46004
815	3.26534
816	-0.92817
817	17.27184
818	4.61219
819	0.74733
820	-2.46942
821	90.48086
822	4.88349
823	-3.6819
824	6.83823
825	-1.878
826	0.0454
827	-3.42231
828	3.12653
829	-2.78045
830	3.673
831	4.22802
832	-3.8141
833	6.05976
834	-2.66354
835	10.62429
836	-2.02295
837	-3.00166
838	0.21895
839	4.35863
840	37.43468
841	3.38473
842	5.83949
843	0.60876
844	7.30374
845	-1.54156
846	-5.33229
847	2.63586
848	2.83803
849	-3.34948
850	1.62028
851	-3.18021
852	-4.67431
853	-1.95741
854	-2.99737
855	-2.20148
856	11.2999
857	-1.32703
858	-1.17265
859	2.92395
860	-0.91888
861	1.41585
862	6.25251
863	-1.07868
864	-2.58444
865	7.01291
866	20.31844
867	5.65842
868	-1.37079
869	12.58558
870	2.8953
871	18.69047
872	-1.26432
873	-4.83524
874	2.22751
875	5.04641
876	15.62417
877	-0.70044
878	-3.22378
879	18.62733
880	6.83336
881	0.09096
882	7.4052
883	-1.88223
884	8.75486
885	-6.03692
886	-21.00763
887	-3.75765
888	4.90195
889	-1.54476
890	-0.53379
891	11.55299
892	24.22662
893	8.94001
894	43.14482
895	7.16994
896	2.38982
897	-2.87524
898	1.03962
899	0.33506
900	14.22966
901	139.23576
902	0.01757
903	-1.42189
904	-2.28211
905	1.42737
906	4.51506
907	-2.89071
908	68.09988
909	4.07784
910	-4.3778
911	-0.62122
912	-3.09325
913	0.6259
914	-0.27054
915	0.64821
916	-0.29449
917	3.78095
918	-0.79216
919	-1.26638
920	-7.64359
921	6.83575
922	2.90362
923	9.34205
924	2.83271
925	-0.91317
926	-3.5414
927	6.14722
928	-3.33455
929	3.46612
930	-1.92947
931	0.55492
932	1.67683
933	-0.70612
934	2.58365
935	3.46589
936	-1.56802
937	-0.28735
938	5.23019
939	21.94464
940	-2.20804
941	-0.70939
942	-0.93427
943	-1.29904
944	3.89234
945	3.6089
946	-6.68703
947	14.4076
948	9.2486
949	2.68978
950	23.89656
951	5.82224
952	-3.86402
953	-1.03706
954	3.82279
955	-0.17709
956	-0.96504
957	-1.98571
958	5.8353
959	-0.70116
960	1.03244
961	-5.77149
962	-3.77323
963	5.99185
964	-0.47785
965	-0.96692
966	-4.22151
967	-3.93704
968	-1.38858
969	16.61149
970	-4.4885
971	8.00461
972	-5.28668
973	7.22886
974	7.34281
975	-3.57
976	5.20193
977	6.28624
978	27.57934
979	0.19322
980	3.21263
981	2.69232
982	7.79406
983	-3.35311
984	31.16143
985	-3.05513
986	9.62108
987	1.58604
988	18.92259
989	2.84397
990	-3.60607
991	-2.24492
992	32.13245
993	-5.47392
994	4.03006
995	-2.8598
996	-0.26811
997	10.46896
998	5.29286
999	24.46316
1000	-3.18941
