Data from 14_USB2G479881__0__15-47-33-638.txt Node

Date: Thu Feb 19 15:47:33 GMT 2026
User: Student
Spectrometer: USB2G47988
Scans to average: 10
Trigger mode: 4
Integration Time (sec): 8.000000E-1
Electric dark correction enabled: true
Boxcar width: 0
XAxis mode: Wavelengths
Number of Pixels in Spectrum: 651
>>>>>Begin Spectral Data<<<<<
350	0.83147
351	2.12893
352	1.05667
353	-2.82526
354	-1.19181
355	0.31709
356	-0.92492
357	-0.65572
358	-1.55225
359	-1.62563
360	0.87786
361	10.19613
362	8.43968
363	-1.49857
364	-2.76925
365	4.69867
366	10.14558
367	3.41663
368	10.73895
369	9.96463
370	-0.40371
371	9.73803
372	4.53469
373	3.77104
374	1.93424
375	1.83238
376	-0.02418
377	23.82454
378	5.70351
379	1.11209
380	3.95181
381	1.24797
382	9.92495
383	-2.69106
384	9.43559
385	4.46529
386	7.79819
387	5.06883
388	23.22745
389	8.37696
390	2.97918
391	2.09804
392	3.04326
393	21.61329
394	17.7062
395	1.75545
396	2.62808
397	30.82534
398	12.98058
399	7.16906
400	11.99064
401	16.26208
402	8.60099
403	5.94451
404	2.63859
405	0.13692
406	28.72205
407	1.03891
408	7.36938
409	2.11351
410	12.53507
411	5.31781
412	4.24075
413	3.62337
414	3.56679
415	5.66248
416	6.10329
417	5.64434
418	5.12373
419	4.55302
420	3.84118
421	8.94821
422	17.2309
423	6.6481
424	7.24514
425	96.19231
426	9.24642
427	2.71911
428	1.29334
429	35.00784
430	13.58969
431	5.60749
432	4.47328
433	8.21573
434	3.16382
435	0.38131
436	15.83814
437	4.57788
438	18.36713
439	62.54028
440	7.27677
441	3.43808
442	8.94818
443	22.52513
444	6.98007
445	-10.25747
446	1.19744
447	8.28415
448	6.3229
449	18.1981
450	6.29475
451	10.29042
452	10.30806
453	12.80004
454	20.67311
455	12.92724
456	18.66382
457	17.84881
458	16.65785
459	26.42319
460	15.50084
461	10.18778
462	14.34017
463	13.92732
464	11.16978
465	13.84754
466	11.22064
467	15.50279
468	21.37914
469	15.91053
470	13.22979
471	7.63126
472	10.27478
473	17.92845
474	14.31255
475	12.25296
476	13.80305
477	17.36497
478	16.22755
479	20.33281
480	8.73155
481	10.31635
482	13.36367
483	9.78886
484	10.23131
485	6.67779
486	8.17201
487	10.4094
488	9.01212
489	39.55469
490	11.32346
491	5.30356
492	18.44074
493	7.72147
494	7.71594
495	9.61489
496	4.99491
497	14.56393
498	23.57437
499	7.77444
500	7.01836
501	14.79548
502	4.24651
503	7.43307
504	22.40484
505	10.48758
506	7.58774
507	7.72114
508	4.51834
509	-7.65585
510	32.35061
511	10.14987
512	10.43407
513	21.1425
514	15.03649
515	13.01975
516	13.66854
517	10.48329
518	9.84969
519	12.31193
520	34.24815
521	16.11317
522	20.30536
523	19.37524
524	19.53097
525	133.39859
526	22.22904
527	37.10251
528	17.67318
529	41.10023
530	23.30843
531	19.83477
532	17.89603
533	32.62852
534	15.69068
535	25.01666
536	48.93449
537	55.40008
538	17.94163
539	17.84155
540	23.9982
541	18.87009
542	17.06903
543	21.07982
544	16.06207
545	20.46186
546	91.26684
547	16.13754
548	19.51896
549	22.39266
550	25.64252
551	15.91704
552	12.78862
553	10.48873
554	13.0012
555	27.01473
556	19.41485
557	11.6682
558	20.95521
559	14.86414
560	12.87081
561	16.2445
562	8.95318
563	16.93314
564	15.48244
565	11.7222
566	15.1587
567	8.45559
568	7.92084
569	14.19688
570	7.90229
571	9.73747
572	9.95732
573	7.3919
574	5.43089
575	8.34202
576	5.91129
577	11.69272
578	9.39024
579	5.26084
580	10.87681
581	9.10497
582	35.80415
583	6.72076
584	3.54795
585	13.58187
586	6.19047
587	10.67029
588	5.7766
589	5.62846
590	12.18902
591	4.51244
592	8.80508
593	5.53043
594	13.42321
595	7.38949
596	12.12296
597	27.7297
598	24.46281
599	5.78784
600	23.94266
601	11.42087
602	30.13329
603	8.98339
604	13.89476
605	30.9706
606	8.51218
607	5.88415
608	16.01773
609	16.64291
610	9.52098
611	9.79786
612	8.29257
613	11.82485
614	118.13154
615	18.68198
616	8.79205
617	21.22315
618	14.50437
619	10.76175
620	10.48735
621	12.91456
622	13.34332
623	13.072
624	12.0367
625	13.02215
626	13.75083
627	20.10324
628	26.0416
629	27.95245
630	17.23519
631	24.44749
632	137.99574
633	28.04538
634	37.78643
635	20.76336
636	21.57084
637	34.26231
638	25.52586
639	33.41473
640	34.23031
641	36.76738
642	41.70617
643	46.31223
644	49.62227
645	208.11608
646	43.14143
647	71.09246
648	78.41682
649	82.97214
650	94.18292
651	105.72157
652	149.84265
653	457.01406
654	3840.27378
655	2577.77085
656	295.39861
657	116.02476
658	100.82115
659	107.86355
660	62.01443
661	50.16209
662	38.30654
663	91.55796
664	33.81758
665	27.97429
666	21.90175
667	27.93515
668	21.59825
669	19.99717
670	19.39502
671	20.40435
672	16.18826
673	18.17996
674	13.72141
675	20.88327
676	28.92596
677	16.33128
678	34.40121
679	13.06264
680	11.88901
681	11.39368
682	28.40563
683	7.87956
684	24.7046
685	58.69902
686	5.72991
687	8.32604
688	7.43345
689	4.09674
690	20.44318
691	5.82275
692	3.52771
693	9.64666
694	5.74096
695	12.76193
696	1.97091
697	2.37669
698	0.99664
699	6.33531
700	2.29612
701	2.16552
702	5.51986
703	0.71028
704	6.71013
705	27.21788
706	3.36304
707	2.25717
708	1.98891
709	0.65717
710	-0.21368
711	9.15002
712	3.93694
713	28.24313
714	-16.41368
715	-41.47643
716	6.27444
717	3.16477
718	1.45421
719	14.60336
720	2.74354
721	2.10599
722	-0.28612
723	1.94979
724	-0.53261
725	2.39838
726	2.98678
727	8.04638
728	0.32128
729	0.80426
730	13.64102
731	3.76114
732	4.02634
733	1.94476
734	-0.87307
735	16.97799
736	7.16035
737	10.45606
738	1.79106
739	2.47679
740	0.08141
741	64.33319
742	1.15016
743	14.86188
744	16.23586
745	1.07782
746	19.04925
747	7.55386
748	27.28562
749	6.42422
750	5.3045
751	6.58128
752	2.25046
753	2.38333
754	0.36856
755	16.58453
756	4.84284
757	57.74376
758	27.07711
759	24.72279
760	1.78822
761	4.14847
762	40.93086
763	-0.58659
764	3.04306
765	43.60837
766	6.50765
767	30.11476
768	2.39958
769	5.33265
770	-0.77956
771	1.61343
772	3.20431
773	-2.03354
774	1.09387
775	-2.74241
776	39.29817
777	0.94808
778	5.15624
779	-1.14732
780	4.80872
781	2.10746
782	-1.33388
783	6.509
784	10.68683
785	-1.64401
786	14.75701
787	1.15738
788	7.35307
789	0.63125
790	1.81012
791	-0.24332
792	-0.88587
793	1.55617
794	-1.98173
795	2.23165
796	2.83729
797	3.95446
798	-0.41617
799	3.10398
800	6.32811
801	0.80161
802	2.41627
803	32.35411
804	0.3781
805	-2.2497
806	2.66257
807	5.0863
808	3.52211
809	3.37862
810	12.5369
811	53.60256
812	23.47236
813	-0.89616
814	4.40601
815	4.53385
816	-1.914
817	15.59724
818	4.80764
819	1.51587
820	0.14688
821	75.0862
822	3.58292
823	-1.5731
824	6.182
825	0.00877
826	2.43307
827	-0.70838
828	5.36331
829	-1.67997
830	5.17155
831	7.50095
832	-1.63221
833	9.07149
834	-1.19567
835	10.97878
836	-3.1681
837	-1.95379
838	1.25508
839	4.02261
840	35.76948
841	3.25425
842	2.47959
843	2.32885
844	8.90235
845	-0.61501
846	-9.25686
847	-14.71645
848	3.4059
849	-1.50254
850	3.25058
851	-2.37632
852	-1.64626
853	-0.59221
854	-0.96873
855	-0.54766
856	9.486
857	0.7632
858	-1.63207
859	2.05815
860	0.00092
861	2.68178
862	1.41899
863	1.11408
864	0.59885
865	4.01095
866	18.84208
867	4.88238
868	0.70778
869	12.36315
870	1.81147
871	14.72198
872	-1.88144
873	-2.64584
874	1.23851
875	4.86436
876	29.256
877	-1.30659
878	-1.61054
879	17.85139
880	7.89972
881	-1.11692
882	4.32798
883	-0.63976
884	6.03034
885	-4.43119
886	-17.58291
887	-3.61787
888	7.92672
889	0.47189
890	1.06359
891	62.61615
892	40.80652
893	9.84252
894	37.12974
895	6.10206
896	3.53124
897	-2.12432
898	1.28074
899	1.80212
900	9.37759
901	109.97024
902	0.70216
903	-2.57264
904	-1.67458
905	-1.0226
906	4.89737
907	-2.02778
908	57.50486
909	6.83226
910	-2.59964
911	1.05454
912	0.90757
913	1.14856
914	2.30865
915	1.42756
916	-0.436
917	4.94545
918	-0.90532
919	0.62923
920	-5.7505
921	3.77947
922	-2.11224
923	8.3425
924	2.80762
925	0.7114
926	-1.56743
927	7.12991
928	-1.10003
929	3.55448
930	-1.59228
931	0.06447
932	3.38105
933	0.40949
934	0.17527
935	26.12555
936	-0.16636
937	0.88276
938	4.40817
939	21.78012
940	-1.1258
941	-0.05621
942	1.24743
943	1.00557
944	3.47822
945	3.07795
946	-5.46106
947	12.86853
948	9.07049
949	2.44876
950	24.38987
951	4.30456
952	1.72566
953	2.22546
954	3.43101
955	1.70298
956	-0.30874
957	-0.69387
958	7.91453
959	-0.0566
960	1.78897
961	-0.4979
962	-1.25054
963	4.65402
964	1.54099
965	2.03587
966	-1.95303
967	-0.97767
968	0.04144
969	16.3309
970	-1.72536
971	7.70945
972	-2.56619
973	7.32106
974	0.23175
975	-2.53971
976	3.2053
977	8.15064
978	24.05678
979	3.28045
980	1.41742
981	2.64065
982	6.99028
983	0.65016
984	26.4211
985	-1.83352
986	6.16669
987	2.39604
988	19.1021
989	3.08698
990	-0.21867
991	-0.06634
992	27.61477
993	-5.24478
994	2.95106
995	-1.98689
996	2.57395
997	8.00852
998	2.21566
999	23.66154
1000	-0.77505
