Data from 23_USB2G479881__0__15-56-11-292.txt Node

Date: Thu Feb 19 15:56:11 GMT 2026
User: Student
Spectrometer: USB2G47988
Scans to average: 10
Trigger mode: 4
Integration Time (sec): 8.000000E-1
Electric dark correction enabled: true
Boxcar width: 0
XAxis mode: Wavelengths
Number of Pixels in Spectrum: 651
>>>>>Begin Spectral Data<<<<<
350	0.49463
351	0.23339
352	0.11825
353	-1.29806
354	0.45179
355	0.68414
356	0.05191
357	-0.66024
358	-1.74259
359	-2.62455
360	-0.36779
361	10.25188
362	8.62527
363	-1.64257
364	-3.14881
365	6.39516
366	11.78356
367	1.6502
368	12.51935
369	9.07548
370	-1.64127
371	8.756
372	4.35737
373	3.77181
374	1.96848
375	3.45205
376	0.07617
377	23.52523
378	6.11863
379	0.2532
380	4.95721
381	2.97447
382	10.39034
383	-2.1704
384	10.70521
385	5.05439
386	8.87452
387	2.60116
388	23.38876
389	9.7244
390	3.04735
391	2.70354
392	3.93095
393	18.01826
394	18.54077
395	1.51126
396	2.54532
397	28.99247
398	13.41062
399	7.17638
400	10.80406
401	17.54209
402	7.33298
403	7.09253
404	1.73298
405	1.65859
406	29.64341
407	2.22104
408	5.32352
409	2.60428
410	12.84064
411	5.59838
412	4.30884
413	1.31246
414	3.87638
415	4.95391
416	5.52458
417	3.64432
418	6.75003
419	4.38051
420	4.51519
421	9.12458
422	17.77407
423	5.0518
424	8.29597
425	97.79685
426	7.87785
427	3.86047
428	1.833
429	34.5037
430	14.43013
431	5.13718
432	2.91927
433	7.37135
434	3.88731
435	0.90498
436	16.90356
437	5.68997
438	18.38175
439	59.5948
440	8.06155
441	3.34165
442	7.33332
443	23.48908
444	5.46297
445	-15.31937
446	-4.59903
447	3.59632
448	3.69633
449	13.55778
450	3.91818
451	6.14681
452	3.10494
453	5.55654
454	14.27065
455	5.4424
456	11.07414
457	7.88893
458	4.65664
459	15.56021
460	4.30416
461	4.10258
462	7.09143
463	4.6939
464	5.33034
465	5.85709
466	3.534
467	7.93167
468	16.34533
469	11.47668
470	7.40069
471	3.48267
472	3.73688
473	11.76746
474	7.85824
475	4.12735
476	6.32382
477	8.9524
478	9.52058
479	15.46671
480	0.0212
481	5.339
482	7.75065
483	5.34428
484	4.30288
485	2.42854
486	5.73179
487	6.47305
488	7.96841
489	36.47941
490	8.6875
491	3.88692
492	16.7398
493	4.86834
494	4.13552
495	7.16556
496	2.79387
497	11.23835
498	18.36573
499	4.30861
500	3.26335
501	13.99946
502	1.96777
503	3.57751
504	20.18457
505	4.86701
506	1.82445
507	2.24369
508	2.1328
509	-10.40434
510	25.75915
511	1.26238
512	2.66292
513	14.231
514	7.19059
515	8.06393
516	6.4062
517	2.21512
518	4.41598
519	5.17112
520	23.19934
521	5.57791
522	7.9194
523	7.99383
524	9.96529
525	122.55759
526	13.03777
527	25.092
528	6.63806
529	29.01367
530	9.36196
531	5.54141
532	7.3869
533	16.52955
534	2.4989
535	11.65225
536	32.2896
537	44.36087
538	5.34487
539	6.84368
540	7.20631
541	2.31554
542	3.06078
543	8.52561
544	6.86019
545	8.11385
546	78.32071
547	5.37272
548	10.47926
549	13.22311
550	13.54668
551	4.06416
552	6.67345
553	1.88185
554	3.09566
555	14.39657
556	10.90405
557	4.18727
558	14.05486
559	6.34176
560	2.55911
561	7.37243
562	3.34256
563	10.48384
564	8.83946
565	3.46101
566	5.98975
567	3.61664
568	2.16494
569	8.73356
570	4.11852
571	4.80704
572	3.09567
573	3.75458
574	2.35976
575	4.50778
576	2.28947
577	7.16124
578	4.15004
579	1.187
580	7.85091
581	2.75321
582	33.86001
583	3.9016
584	-2.18693
585	8.85304
586	3.23646
587	4.98675
588	1.51073
589	2.70295
590	7.83558
591	0.74284
592	9.87638
593	1.59298
594	12.18808
595	3.03177
596	6.12726
597	24.85513
598	19.851
599	2.4083
600	17.54979
601	6.45125
602	25.44835
603	2.3674
604	8.53429
605	29.00358
606	3.3863
607	2.18318
608	13.41434
609	7.64166
610	5.07548
611	1.66939
612	1.3305
613	5.35482
614	111.0936
615	10.86204
616	2.43234
617	15.67976
618	8.10835
619	3.45895
620	4.5123
621	4.02645
622	5.55951
623	6.56151
624	2.8049
625	4.27037
626	5.70834
627	12.6706
628	16.49275
629	15.49679
630	7.41243
631	10.55416
632	119.01659
633	11.59996
634	23.24612
635	7.17842
636	7.90525
637	9.7082
638	9.42263
639	8.93852
640	15.91093
641	13.87366
642	19.3577
643	14.23089
644	15.98993
645	168.53391
646	10.05981
647	30.94604
648	32.26111
649	25.90792
650	46.28421
651	39.28152
652	54.32837
653	232.05129
654	1212.2486
655	1074.622
656	218.07184
657	62.13603
658	50.17181
659	76.79175
660	33.9406
661	21.30116
662	16.09123
663	57.70238
664	10.37589
665	11.26536
666	9.33282
667	10.59905
668	8.92289
669	10.92055
670	8.15671
671	11.53739
672	5.51212
673	8.28564
674	3.09009
675	15.0887
676	21.15504
677	7.83084
678	29.25831
679	7.80802
680	7.20853
681	6.23355
682	20.98447
683	5.72509
684	19.01944
685	54.08484
686	3.23018
687	4.0279
688	3.99294
689	1.3374
690	20.06817
691	3.55871
692	-0.14774
693	7.22799
694	4.15113
695	11.64357
696	0.62258
697	-0.41097
698	0.72219
699	3.61226
700	-1.45169
701	0.20131
702	2.42752
703	0.51877
704	3.54947
705	21.88266
706	1.26829
707	-0.74076
708	1.54085
709	-1.35748
710	-0.38023
711	7.76939
712	-0.31806
713	30.91936
714	-19.94613
715	-42.22386
716	6.36536
717	0.93768
718	-1.19449
719	13.00437
720	0.56896
721	0.05804
722	0.14131
723	2.54999
724	-1.09243
725	0.55467
726	2.41117
727	8.32856
728	0.98533
729	-0.59677
730	11.87463
731	4.88343
732	3.94588
733	1.83339
734	1.56883
735	17.2077
736	6.7058
737	10.68027
738	1.05439
739	2.99711
740	0.40767
741	66.32929
742	0.39169
743	14.10391
744	12.21222
745	0.32928
746	15.99259
747	5.08512
748	28.15013
749	4.70146
750	3.91569
751	6.73103
752	0.66098
753	1.36986
754	0.23795
755	18.84822
756	3.78405
757	56.53663
758	29.5543
759	27.01045
760	0.31255
761	5.16304
762	42.09736
763	-1.44266
764	2.77769
765	44.35879
766	6.89136
767	31.18639
768	-0.41358
769	8.03472
770	-1.1389
771	-1.15247
772	1.10469
773	-1.0006
774	2.03647
775	-3.10599
776	43.52089
777	0.26772
778	5.38978
779	1.99074
780	5.72246
781	2.90845
782	-0.13061
783	9.70037
784	13.99922
785	-0.5782
786	14.22196
787	0.53529
788	8.06296
789	0.67217
790	1.3843
791	-1.6505
792	0.01077
793	1.30771
794	-1.146
795	2.8472
796	2.57735
797	4.01357
798	0.00038
799	4.02142
800	6.48185
801	-1.00611
802	1.17224
803	31.58397
804	0.49969
805	-0.40998
806	4.27482
807	4.61522
808	4.852
809	3.90349
810	11.53018
811	53.82348
812	22.4163
813	-0.45087
814	4.45644
815	4.2819
816	0.05917
817	14.05797
818	6.41443
819	2.29098
820	0.15403
821	73.66526
822	4.66082
823	-2.18338
824	7.64681
825	0.56908
826	2.22771
827	-0.66025
828	4.40524
829	-0.3897
830	5.46861
831	6.54741
832	-0.83467
833	9.99075
834	-1.33186
835	9.87844
836	-2.03946
837	0.35837
838	1.73603
839	3.8184
840	33.60179
841	3.8017
842	2.93779
843	3.37766
844	6.45282
845	0.07741
846	-7.81118
847	-11.75054
848	3.16137
849	0.13681
850	2.41019
851	-1.74179
852	-1.2004
853	1.94749
854	1.15265
855	-0.09173
856	11.13574
857	0.56368
858	0.72528
859	0.68674
860	-0.38502
861	3.43938
862	4.49695
863	0.62315
864	-0.19227
865	4.97389
866	21.3645
867	4.91724
868	-0.15428
869	11.47647
870	2.86849
871	16.86411
872	-1.78761
873	-0.90107
874	1.99414
875	5.64518
876	29.76953
877	-0.12975
878	-1.72915
879	17.58857
880	7.72465
881	0.64359
882	6.43015
883	1.00911
884	9.39003
885	-3.59365
886	-17.70375
887	-2.38429
888	7.49521
889	-0.17583
890	2.18369
891	62.64585
892	41.38486
893	9.40229
894	38.26642
895	5.16136
896	2.31234
897	-0.40404
898	1.60088
899	1.41436
900	12.35534
901	114.04644
902	1.13682
903	-0.96714
904	-0.1504
905	1.41137
906	3.68749
907	-2.70056
908	60.94609
909	6.99228
910	0.13085
911	1.57479
912	-0.36393
913	1.06107
914	3.50883
915	1.66265
916	0.35258
917	4.41194
918	1.20696
919	-0.40414
920	-5.39419
921	3.80381
922	-1.74149
923	10.43715
924	3.06753
925	1.32765
926	-3.00158
927	8.36873
928	-1.56411
929	3.66168
930	0.0944
931	1.63145
932	3.73295
933	3.1112
934	2.16617
935	24.46934
936	0.26901
937	0.1197
938	3.91423
939	22.04371
940	0.1201
941	0.08422
942	0.99517
943	0.64574
944	3.25517
945	4.60497
946	-6.25123
947	13.49013
948	11.41532
949	2.35792
950	23.63797
951	4.64216
952	-0.01721
953	0.72308
954	4.3709
955	2.7215
956	0.32816
957	0.96062
958	9.47891
959	0.73213
960	0.23892
961	-2.18039
962	-0.61301
963	5.59749
964	0.83247
965	1.98625
966	-1.25838
967	-1.5422
968	0.30833
969	15.2165
970	0.16851
971	7.58923
972	-2.2056
973	8.02028
974	4.8387
975	-0.11132
976	3.91052
977	7.09516
978	76.31821
979	1.77626
980	1.38088
981	2.8499
982	10.02726
983	0.78365
984	25.37173
985	-2.46777
986	6.20027
987	2.4376
988	18.88884
989	2.0341
990	1.13178
991	0.24886
992	29.12809
993	-1.87652
994	4.38017
995	-0.78793
996	2.71203
997	4.32897
998	3.30844
999	25.90091
1000	-1.00055
