Data from 31_USB2G479881__0__16-05-48-131.txt Node

Date: Thu Feb 19 16:05:48 GMT 2026
User: Student
Spectrometer: USB2G47988
Scans to average: 10
Trigger mode: 4
Integration Time (sec): 8.000000E-1
Electric dark correction enabled: true
Boxcar width: 0
XAxis mode: Wavelengths
Number of Pixels in Spectrum: 651
>>>>>Begin Spectral Data<<<<<
350	2.26367
351	0.79268
352	0.29183
353	-1.49411
354	-1.85408
355	1.23677
356	-1.25113
357	0.19479
358	-2.58597
359	-0.92093
360	0.90722
361	10.72514
362	10.10098
363	-0.31686
364	-2.87358
365	6.82977
366	12.8217
367	5.71528
368	12.23571
369	8.99711
370	1.02672
371	12.67772
372	5.14788
373	2.60287
374	3.98538
375	3.00035
376	1.47772
377	24.70325
378	5.35712
379	0.10013
380	7.60022
381	3.4653
382	12.07869
383	-4.61435
384	12.7476
385	5.21614
386	11.03364
387	5.86119
388	24.34919
389	9.84303
390	0.9464
391	3.04574
392	4.89135
393	20.71787
394	18.04106
395	3.28376
396	3.14003
397	34.5304
398	15.68503
399	10.30772
400	11.93154
401	18.14991
402	9.20013
403	4.83445
404	3.92049
405	4.78276
406	29.83972
407	3.73226
408	6.25859
409	5.56495
410	12.79454
411	5.81803
412	5.50775
413	4.04157
414	6.47672
415	3.3976
416	7.00851
417	6.12485
418	8.27001
419	5.80934
420	3.40204
421	10.75209
422	17.24529
423	6.56674
424	8.78646
425	101.51152
426	10.0358
427	4.90726
428	3.52118
429	35.27719
430	17.72236
431	5.30182
432	4.08686
433	8.38427
434	4.87932
435	2.35339
436	18.78872
437	6.44453
438	18.54008
439	62.75427
440	7.84259
441	3.12417
442	10.10993
443	25.46255
444	7.29935
445	-12.61798
446	-0.79271
447	5.30859
448	5.47361
449	13.88292
450	5.06078
451	5.85323
452	3.89935
453	7.51734
454	17.46124
455	4.76503
456	10.29201
457	8.82538
458	2.98392
459	14.0793
460	5.15028
461	4.28311
462	6.3495
463	4.72822
464	4.98157
465	8.00051
466	5.72718
467	7.9979
468	16.00248
469	10.8501
470	7.70344
471	2.96022
472	4.85935
473	11.5919
474	8.36584
475	3.69792
476	5.80035
477	10.22033
478	9.94667
479	14.84647
480	2.8145
481	6.49154
482	10.91227
483	6.01061
484	4.33276
485	3.09512
486	5.93831
487	7.02904
488	7.33267
489	32.9668
490	9.17683
491	3.91787
492	16.52443
493	4.28103
494	3.89173
495	7.22696
496	2.59535
497	12.13307
498	20.94875
499	6.46194
500	3.76229
501	14.44279
502	2.53811
503	3.64142
504	20.64435
505	8.20967
506	4.00037
507	3.13126
508	1.95029
509	-10.07309
510	27.25127
511	2.67996
512	1.96513
513	16.91162
514	7.43517
515	8.69899
516	5.81427
517	1.71643
518	4.13916
519	4.36697
520	22.07175
521	4.29175
522	9.96182
523	7.47417
524	7.60357
525	123.73095
526	12.83384
527	23.62208
528	6.5578
529	28.51016
530	9.42576
531	6.64919
532	5.52577
533	18.12449
534	2.88282
535	12.63279
536	30.05331
537	43.31934
538	5.29106
539	5.04213
540	7.62042
541	6.36857
542	2.09806
543	6.3834
544	3.97148
545	8.16948
546	78.82517
547	4.2159
548	6.63928
549	12.24529
550	11.96445
551	5.35727
552	3.97312
553	2.78271
554	2.6231
555	17.77842
556	9.38504
557	3.1446
558	14.75915
559	8.28037
560	2.43471
561	10.73068
562	4.12634
563	8.01706
564	9.09037
565	4.04703
566	4.44312
567	2.79295
568	3.67177
569	10.95014
570	2.91509
571	2.77066
572	4.13496
573	1.60522
574	0.17241
575	2.75967
576	0.62688
577	7.66606
578	4.42209
579	1.26105
580	6.27953
581	1.89598
582	32.10102
583	3.59705
584	-0.55651
585	9.71522
586	3.41374
587	5.62773
588	0.4773
589	0.74528
590	9.05396
591	0.85872
592	4.36238
593	0.30294
594	12.67561
595	1.68759
596	7.11254
597	22.59803
598	21.94874
599	3.79761
600	15.36347
601	8.20835
602	24.93556
603	3.64353
604	8.23898
605	26.19949
606	3.07956
607	0.13144
608	12.8867
609	8.17823
610	3.8146
611	2.24548
612	1.20288
613	5.10014
614	112.62305
615	8.74805
616	2.8845
617	12.92152
618	5.05433
619	3.80618
620	4.39053
621	2.88716
622	2.18304
623	2.49522
624	0.65459
625	2.9097
626	3.88961
627	9.03226
628	14.83278
629	14.03671
630	4.33225
631	6.02043
632	118.18839
633	9.90252
634	19.81842
635	5.12042
636	3.78091
637	5.81032
638	3.15105
639	4.77633
640	12.34272
641	4.48716
642	10.63436
643	8.27657
644	5.80438
645	86.38414
646	4.63961
647	19.7671
648	17.81248
649	11.5059
650	25.34292
651	19.24377
652	23.86812
653	49.94319
654	496.18445
655	532.6058
656	164.15745
657	44.15882
658	46.41694
659	65.16139
660	29.22332
661	12.95629
662	7.15828
663	56.1169
664	4.89556
665	6.32717
666	3.70047
667	6.44006
668	4.01799
669	5.47916
670	5.50338
671	8.38151
672	3.32073
673	7.95185
674	2.18515
675	15.19929
676	20.3355
677	8.82908
678	27.23447
679	7.34222
680	6.01603
681	8.03591
682	21.85265
683	1.88409
684	19.81105
685	53.72685
686	1.68523
687	3.68192
688	2.55685
689	0.64342
690	18.23026
691	3.61182
692	-0.79396
693	8.96849
694	4.4239
695	10.23768
696	2.75866
697	0.69362
698	-0.67877
699	6.13682
700	-1.07874
701	-0.98042
702	5.41677
703	1.06085
704	3.2988
705	23.90856
706	1.23078
707	-1.11822
708	3.0583
709	-1.48713
710	-0.02793
711	10.58387
712	1.96565
713	27.38139
714	-19.62118
715	-40.78427
716	6.32595
717	-0.28551
718	0.18568
719	13.7153
720	0.69578
721	2.74474
722	0.21603
723	2.69125
724	0.047
725	1.62117
726	2.808
727	9.10739
728	1.65969
729	-0.89562
730	13.24259
731	5.38957
732	3.48959
733	4.01052
734	2.69808
735	16.75105
736	11.2362
737	11.31028
738	1.8226
739	4.66973
740	0.75561
741	68.49037
742	0.39229
743	14.9709
744	14.30652
745	1.5535
746	17.93897
747	8.63242
748	31.43697
749	6.36914
750	4.97829
751	6.10629
752	2.07618
753	4.10929
754	0.19932
755	18.02299
756	3.10932
757	62.76823
758	31.0325
759	29.54424
760	1.29131
761	4.85018
762	36.54597
763	0.71635
764	4.12795
765	28.41689
766	5.66353
767	31.42
768	1.97993
769	5.97913
770	1.59954
771	0.50874
772	5.18754
773	0.9607
774	2.38771
775	-1.56915
776	45.715
777	2.43205
778	8.53108
779	2.2562
780	6.9872
781	5.65168
782	-1.12441
783	11.59071
784	12.57296
785	0.77603
786	14.80138
787	1.47148
788	9.28061
789	0.76691
790	2.1531
791	-1.26008
792	0.65285
793	2.02981
794	0.40021
795	3.40706
796	3.33816
797	6.54723
798	1.49668
799	3.18175
800	7.58742
801	1.2771
802	1.87714
803	33.11056
804	1.12411
805	0.27583
806	5.20296
807	4.9566
808	3.98801
809	4.33227
810	13.0207
811	54.6702
812	26.2445
813	-0.05569
814	5.36618
815	3.35334
816	1.19479
817	16.06463
818	6.12788
819	2.57207
820	1.10718
821	77.0402
822	4.4799
823	-0.32496
824	8.28302
825	0.82858
826	2.75269
827	0.22145
828	5.42927
829	1.39933
830	5.69159
831	7.0726
832	-1.37043
833	11.89919
834	0.17536
835	11.95371
836	0.84117
837	-0.3903
838	3.50571
839	6.00756
840	34.85359
841	6.43187
842	5.99592
843	2.3679
844	9.67475
845	0.04073
846	-1.56908
847	2.84503
848	3.82544
849	0.9634
850	5.89034
851	-1.68444
852	-1.23665
853	2.10439
854	0.30105
855	0.8744
856	11.70898
857	3.21256
858	0.7402
859	2.14076
860	0.76457
861	5.07025
862	4.93557
863	1.28481
864	2.05532
865	6.80306
866	21.92722
867	5.8334
868	0.69628
869	10.69726
870	3.74947
871	17.50753
872	-0.43347
873	0.66241
874	3.16496
875	7.33355
876	31.52905
877	3.68836
878	-0.54753
879	17.82948
880	8.99371
881	3.27778
882	7.54972
883	0.55733
884	9.28403
885	-3.01175
886	-16.26499
887	-2.283
888	9.45862
889	3.85366
890	3.17083
891	66.91468
892	44.66062
893	13.87337
894	41.17494
895	6.64276
896	3.39681
897	1.2356
898	4.14767
899	3.54047
900	12.69437
901	117.61119
902	2.97605
903	1.84729
904	0.4993
905	1.82718
906	5.45465
907	-1.92071
908	60.36819
909	6.98595
910	-1.204
911	2.78484
912	2.82555
913	1.79998
914	2.59672
915	3.72042
916	2.92271
917	5.51552
918	1.10058
919	0.70553
920	-6.71677
921	5.69804
922	-0.11567
923	12.54301
924	3.26327
925	1.2045
926	0.26957
927	9.34456
928	-0.06817
929	6.59651
930	-0.38081
931	0.71184
932	6.95655
933	1.86163
934	3.65282
935	28.05979
936	-0.12112
937	3.48076
938	5.49401
939	24.24697
940	0.15778
941	-0.36722
942	2.50191
943	4.05279
944	6.01668
945	3.41468
946	-2.24773
947	2.84852
948	10.66828
949	3.1877
950	25.0199
951	5.38953
952	-0.21357
953	3.7036
954	7.19851
955	2.45711
956	2.48883
957	1.31166
958	7.5894
959	2.47642
960	2.36576
961	1.20246
962	0.56543
963	7.56204
964	1.50682
965	2.96858
966	-0.81263
967	-1.93533
968	2.29569
969	15.57713
970	-0.85214
971	9.55609
972	-1.23382
973	8.50271
974	6.11749
975	0.3745
976	5.88545
977	11.44811
978	73.92575
979	3.59341
980	2.94143
981	3.66757
982	8.45832
983	0.63223
984	29.60336
985	-0.18632
986	7.94597
987	2.78275
988	18.36182
989	4.25524
990	0.66078
991	2.02098
992	30.17497
993	-2.03758
994	5.50356
995	-0.15601
996	4.22659
997	9.52807
998	3.04842
999	25.99484
1000	0.86186
