Data from 40_USB2G479881__0__16-19-48-718.txt Node

Date: Thu Feb 19 16:19:48 GMT 2026
User: Student
Spectrometer: USB2G47988
Scans to average: 10
Trigger mode: 4
Integration Time (sec): 8.000000E-1
Electric dark correction enabled: true
Boxcar width: 0
XAxis mode: Wavelengths
Number of Pixels in Spectrum: 651
>>>>>Begin Spectral Data<<<<<
350	1.12925
351	2.57966
352	-0.52094
353	-2.80478
354	-0.3832
355	1.02286
356	-0.8741
357	-0.42776
358	-2.13804
359	-2.80968
360	0.90715
361	8.68574
362	9.75559
363	-2.2296
364	-4.19617
365	6.14226
366	11.96151
367	1.69045
368	12.16847
369	8.60987
370	-0.60922
371	9.94277
372	4.50406
373	2.92988
374	1.64012
375	2.46947
376	1.48319
377	23.60905
378	5.89947
379	0.87289
380	5.8129
381	3.33138
382	12.01018
383	-3.07167
384	11.77163
385	6.00667
386	9.74022
387	5.06461
388	23.57395
389	10.25085
390	2.19921
391	3.58098
392	4.22787
393	21.08794
394	15.74872
395	2.04007
396	1.55931
397	31.46681
398	14.21193
399	8.04522
400	12.04808
401	18.54548
402	7.16006
403	6.24246
404	3.23736
405	3.02374
406	28.95697
407	1.50691
408	5.93263
409	3.59716
410	12.51884
411	3.82721
412	5.84205
413	3.15008
414	4.20316
415	4.52864
416	7.45742
417	5.67657
418	6.53626
419	4.289
420	3.23331
421	9.5171
422	18.71762
423	6.00323
424	8.92606
425	101.89183
426	8.1445
427	4.27951
428	3.76403
429	33.35717
430	14.36599
431	6.85656
432	5.63811
433	8.03883
434	5.4543
435	0.97087
436	17.32415
437	6.43641
438	16.78426
439	63.69958
440	7.65172
441	3.93108
442	8.04935
443	22.47047
444	5.71747
445	-15.07281
446	-2.08791
447	3.33478
448	5.7817
449	15.11847
450	3.93025
451	6.54754
452	2.97196
453	5.78674
454	14.45419
455	6.12866
456	12.40438
457	7.24457
458	2.87291
459	13.58839
460	5.10604
461	4.30581
462	5.72303
463	5.51189
464	4.40315
465	5.78897
466	3.89032
467	7.12682
468	15.89806
469	9.26506
470	4.40367
471	0.43062
472	2.5102
473	9.50824
474	6.49451
475	3.6267
476	5.30689
477	9.08963
478	9.62939
479	15.08655
480	2.6034
481	6.51836
482	9.2599
483	2.76951
484	3.72191
485	1.34171
486	6.88726
487	5.65171
488	4.89917
489	38.26431
490	7.91676
491	2.56643
492	15.21409
493	4.72703
494	4.15736
495	6.81057
496	1.49725
497	11.27274
498	20.22886
499	3.74748
500	2.729
501	13.79104
502	1.3891
503	3.4422
504	18.99158
505	3.93757
506	1.13734
507	4.20615
508	1.71136
509	-11.99482
510	23.77098
511	1.75389
512	1.65927
513	14.0039
514	5.33745
515	7.09133
516	5.0094
517	-0.79392
518	4.71887
519	1.63409
520	20.28752
521	3.66678
522	9.53647
523	6.87036
524	6.04804
525	125.35639
526	10.9449
527	22.88979
528	6.45445
529	27.18081
530	7.13273
531	1.79558
532	4.12275
533	15.50677
534	1.09932
535	12.13697
536	31.05703
537	44.77112
538	5.22268
539	3.6947
540	6.06207
541	5.6732
542	1.54417
543	6.02627
544	5.70048
545	5.65591
546	75.09535
547	3.95145
548	6.24156
549	12.31743
550	13.85263
551	1.75705
552	2.74844
553	1.0305
554	2.95968
555	13.8983
556	7.35396
557	3.66589
558	11.98627
559	6.04242
560	1.29492
561	7.13676
562	2.92006
563	8.17806
564	8.40756
565	0.69235
566	4.94071
567	2.80652
568	0.38953
569	9.10078
570	1.5517
571	1.43332
572	2.08468
573	1.89719
574	-0.84714
575	2.70262
576	0.77044
577	6.07657
578	3.01223
579	0.97834
580	7.00469
581	3.47554
582	31.44322
583	2.99228
584	-2.77702
585	9.23123
586	0.56257
587	6.64499
588	-0.13218
589	-0.40284
590	5.77011
591	-0.75372
592	6.81006
593	-0.22966
594	10.86014
595	2.3535
596	4.83937
597	23.51454
598	19.97975
599	0.89803
600	16.58033
601	7.07423
602	23.74216
603	2.20643
604	7.33552
605	28.17879
606	-1.98422
607	-0.27497
608	10.90697
609	8.07233
610	2.2038
611	0.74023
612	-0.24309
613	2.10045
614	110.1054
615	9.45645
616	0.51166
617	12.9745
618	4.63492
619	1.37617
620	2.38348
621	0.55917
622	1.35355
623	2.24913
624	-0.73993
625	0.15011
626	2.92046
627	8.2992
628	13.16292
629	12.23581
630	1.54192
631	5.40214
632	116.00491
633	8.69099
634	14.75812
635	1.47108
636	1.93529
637	0.8262
638	0.5608
639	3.50602
640	8.94874
641	1.69765
642	6.62999
643	3.62712
644	1.2076
645	66.86901
646	1.26117
647	11.83535
648	10.26813
649	3.62153
650	13.66225
651	10.71326
652	6.43253
653	16.51163
654	267.02795
655	335.02672
656	96.6502
657	30.59208
658	26.1404
659	48.82322
660	16.56101
661	4.41623
662	1.8574
663	51.17204
664	2.01607
665	2.30634
666	-0.89348
667	3.49106
668	0.02678
669	1.18028
670	2.43992
671	3.92833
672	-0.20767
673	5.53306
674	-0.87269
675	13.38514
676	18.66902
677	7.21568
678	25.87404
679	6.65041
680	3.47473
681	3.52627
682	19.07098
683	2.26347
684	18.66336
685	54.07093
686	0.84489
687	2.50629
688	1.42765
689	0.11274
690	17.99612
691	-0.9166
692	-2.93883
693	5.94984
694	3.37019
695	10.0983
696	-0.46188
697	-2.28239
698	-0.93129
699	3.78661
700	-0.53864
701	-0.88051
702	2.35833
703	-0.45474
704	3.57033
705	22.41581
706	0.14433
707	-0.83174
708	2.02129
709	-1.26338
710	-1.64638
711	9.3286
712	0.73029
713	28.05197
714	-21.91608
715	-42.08375
716	4.92459
717	1.10626
718	-0.31111
719	15.76343
720	-0.72882
721	1.33264
722	0.89014
723	1.92408
724	-2.19624
725	2.3809
726	1.76311
727	7.04489
728	0.31738
729	-0.92604
730	12.67945
731	4.68757
732	2.57193
733	1.00356
734	-0.78569
735	18.23025
736	6.51086
737	11.65432
738	1.00142
739	3.96307
740	0.90183
741	68.67191
742	-0.01123
743	16.08355
744	14.24667
745	-0.16819
746	16.26511
747	7.46817
748	27.4181
749	6.86136
750	3.45728
751	7.75832
752	1.72429
753	2.45244
754	-0.51132
755	17.82861
756	3.60518
757	61.35969
758	29.30579
759	27.06847
760	-0.04439
761	3.41443
762	148.4101
763	0.08081
764	4.07673
765	45.5373
766	6.93853
767	32.7617
768	0.18891
769	6.85824
770	-1.21168
771	1.36342
772	2.40139
773	-1.93061
774	2.10036
775	-3.13982
776	47.54611
777	-0.64528
778	5.19205
779	-0.55849
780	5.14054
781	4.52931
782	-0.60589
783	8.5621
784	13.69359
785	0.25021
786	15.06072
787	0.74857
788	8.06877
789	2.1517
790	1.22621
791	-1.96428
792	-0.89764
793	2.61676
794	-1.1269
795	2.33639
796	3.30405
797	3.16517
798	-2.53332
799	3.12602
800	6.72844
801	1.25805
802	1.9365
803	34.38078
804	-0.76458
805	-0.43125
806	4.11486
807	2.68376
808	3.44627
809	3.52018
810	15.06644
811	54.08783
812	25.29659
813	-1.37634
814	4.84511
815	3.92385
816	0.48129
817	16.59925
818	6.70216
819	1.9587
820	0.59805
821	78.73502
822	4.88456
823	-0.51515
824	8.24187
825	1.04476
826	1.74704
827	-2.15898
828	5.23517
829	-0.41503
830	6.30221
831	6.33193
832	-2.28393
833	7.98576
834	1.35842
835	11.73791
836	-2.49206
837	-0.62915
838	1.61916
839	5.55974
840	35.63827
841	3.51841
842	2.6312
843	3.37903
844	8.38689
845	-0.04685
846	-8.79322
847	-12.38931
848	3.74956
849	-0.73851
850	3.47854
851	-1.06357
852	-1.49634
853	0.74469
854	-1.444
855	-0.53691
856	11.41299
857	0.87952
858	0.52104
859	2.10921
860	0.0463
861	4.466
862	5.52739
863	0.9209
864	-0.62876
865	7.35607
866	20.49487
867	6.00415
868	1.57031
869	12.5475
870	3.0525
871	17.38537
872	1.80701
873	-1.29426
874	3.93392
875	6.64532
876	29.00714
877	0.30244
878	-2.92068
879	19.72651
880	6.78397
881	1.07682
882	7.10077
883	-1.09362
884	8.42769
885	-2.83414
886	-18.07175
887	-2.42359
888	7.51342
889	1.0613
890	3.19842
891	68.59115
892	45.87773
893	9.94794
894	40.14451
895	6.99631
896	3.87237
897	-0.06197
898	3.19268
899	2.0094
900	11.99391
901	117.23065
902	0.11113
903	0.47837
904	-1.45103
905	-0.30113
906	6.33206
907	-2.14986
908	62.40873
909	6.46187
910	-0.4123
911	2.57154
912	0.31833
913	0.20494
914	2.02807
915	1.09615
916	0.12367
917	6.25957
918	2.39755
919	1.31167
920	-5.07927
921	3.85959
922	2.26478
923	9.83172
924	2.57268
925	2.33722
926	-0.55894
927	10.81489
928	-0.56593
929	5.53001
930	-1.76858
931	0.18782
932	4.84172
933	4.06617
934	2.6157
935	26.01794
936	-0.46936
937	3.05918
938	5.08097
939	22.56595
940	-0.4563
941	-1.08769
942	4.63482
943	2.13659
944	4.68826
945	3.54598
946	-4.16749
947	14.06101
948	10.73429
949	0.87784
950	24.53141
951	3.86322
952	-0.23007
953	1.54587
954	2.94388
955	1.75539
956	0.20381
957	0.02526
958	6.53566
959	1.8294
960	0.47488
961	-0.26233
962	-2.09487
963	5.80867
964	1.57254
965	2.61835
966	-0.88612
967	-2.22834
968	0.99444
969	15.35752
970	-0.69764
971	9.62594
972	-1.0377
973	6.84085
974	4.17749
975	-0.16339
976	5.28179
977	9.23872
978	25.87533
979	2.40432
980	2.49867
981	2.84898
982	9.16134
983	1.62255
984	28.17213
985	-1.95772
986	9.24106
987	3.75518
988	16.92733
989	2.42332
990	1.39107
991	0.79646
992	31.20801
993	-1.55513
994	3.58569
995	-0.18154
996	3.44647
997	9.18556
998	4.38327
999	28.97412
1000	-0.21842
