Data from 43_USB2G479881__0__16-23-58-267.txt Node

Date: Thu Feb 19 16:23:58 GMT 2026
User: Student
Spectrometer: USB2G47988
Scans to average: 10
Trigger mode: 4
Integration Time (sec): 8.000000E-1
Electric dark correction enabled: true
Boxcar width: 0
XAxis mode: Wavelengths
Number of Pixels in Spectrum: 651
>>>>>Begin Spectral Data<<<<<
350	1.63387
351	1.02735
352	-1.25904
353	-0.80802
354	-0.59417
355	0.54297
356	-0.88669
357	-1.03898
358	-0.68785
359	-2.54425
360	0.87173
361	10.21859
362	9.50169
363	-1.2781
364	-3.59794
365	8.2309
366	12.01307
367	2.12665
368	12.43659
369	6.63451
370	0.06718
371	8.85836
372	4.71079
373	2.84719
374	2.08387
375	1.88136
376	-0.87936
377	23.06846
378	3.75477
379	0.67317
380	3.35279
381	4.32514
382	10.68873
383	-2.70757
384	11.64934
385	5.51967
386	10.19687
387	6.27561
388	23.57651
389	10.0127
390	2.05021
391	3.78498
392	5.06169
393	20.27355
394	17.79721
395	2.6603
396	1.96003
397	31.49484
398	15.1987
399	8.89852
400	11.74577
401	18.95013
402	7.84514
403	3.95253
404	2.50303
405	2.9445
406	29.91417
407	1.53997
408	6.48978
409	3.50767
410	12.32777
411	6.93958
412	5.3073
413	1.71928
414	4.35427
415	4.43229
416	6.81547
417	4.79038
418	6.55869
419	5.3471
420	5.34871
421	10.23613
422	18.10231
423	6.62654
424	7.76735
425	102.44481
426	9.17388
427	4.68346
428	0.7818
429	50.47266
430	16.2846
431	5.47785
432	3.65248
433	8.52671
434	6.09389
435	2.55603
436	18.83489
437	5.93568
438	21.03983
439	63.76729
440	6.44491
441	2.95906
442	9.08501
443	23.4389
444	6.56709
445	-12.70259
446	-0.96874
447	1.89157
448	3.45078
449	12.55288
450	4.89444
451	6.33621
452	3.89888
453	7.06426
454	15.54057
455	3.86381
456	10.87001
457	7.97115
458	2.66969
459	14.80736
460	5.2481
461	2.10401
462	5.2987
463	3.37241
464	3.97654
465	6.17039
466	3.48969
467	6.88843
468	15.93233
469	10.11399
470	6.63249
471	1.62347
472	2.80643
473	11.10182
474	8.08036
475	3.76969
476	3.63111
477	9.77232
478	7.8386
479	13.93926
480	2.67017
481	8.1556
482	9.05018
483	4.13913
484	3.68937
485	-0.57424
486	7.03149
487	4.13788
488	7.0213
489	39.08967
490	8.95259
491	3.8057
492	16.51694
493	3.69211
494	3.22384
495	6.45488
496	1.89511
497	10.75801
498	21.85691
499	6.24513
500	3.08297
501	13.31636
502	1.43948
503	3.17681
504	19.37503
505	7.76758
506	2.79483
507	2.88988
508	-0.15177
509	-12.25029
510	27.62987
511	3.42877
512	2.65442
513	16.60004
514	5.62813
515	4.39042
516	5.80701
517	-0.07691
518	4.75912
519	1.6356
520	17.98536
521	3.19921
522	8.58815
523	5.92538
524	7.32431
525	125.23418
526	11.84074
527	21.45224
528	7.25561
529	28.03571
530	6.87725
531	4.73127
532	2.5476
533	16.4078
534	1.41273
535	10.01139
536	31.46554
537	44.01829
538	5.66597
539	3.96937
540	5.66491
541	3.49408
542	2.19152
543	4.41063
544	3.42602
545	7.96982
546	74.89134
547	4.19807
548	8.79284
549	12.67448
550	12.26206
551	2.00191
552	0.77829
553	0.91035
554	3.11577
555	14.55856
556	8.77092
557	0.74728
558	13.67732
559	6.13485
560	2.16981
561	5.73551
562	1.68834
563	7.29968
564	8.48853
565	2.12795
566	5.77299
567	2.59281
568	2.28586
569	8.22014
570	0.58032
571	1.10773
572	1.51305
573	1.36834
574	0.60683
575	4.49672
576	0.2432
577	6.81172
578	2.03971
579	0.55964
580	5.29681
581	1.07961
582	29.57722
583	3.62498
584	-0.16407
585	9.53633
586	0.98812
587	4.8391
588	0.64952
589	-0.04547
590	8.23177
591	-0.66396
592	5.50164
593	-0.24411
594	13.59593
595	-0.05537
596	6.92663
597	21.86515
598	20.01388
599	1.03168
600	15.11719
601	7.01095
602	26.57996
603	2.12755
604	8.68177
605	29.46142
606	2.2008
607	-1.55434
608	11.19339
609	8.39043
610	0.67481
611	1.44341
612	-0.30946
613	1.21517
614	111.49239
615	9.27959
616	-0.35016
617	12.97812
618	4.3072
619	3.30026
620	-1.01208
621	1.68589
622	-0.00666
623	3.06181
624	0.33338
625	1.64269
626	2.04189
627	7.23404
628	12.86128
629	9.88592
630	1.14643
631	7.90846
632	114.31393
633	7.66276
634	15.22792
635	2.12599
636	0.14932
637	2.59788
638	0.22416
639	3.04519
640	8.322
641	2.76403
642	7.52933
643	1.93612
644	1.73705
645	100.65987
646	-1.94879
647	12.77381
648	10.09556
649	3.01714
650	13.20472
651	11.21888
652	9.07093
653	14.66242
654	191.97818
655	359.18857
656	136.1149
657	27.56039
658	25.90849
659	49.51948
660	16.03208
661	5.71514
662	1.72725
663	53.80979
664	2.35913
665	2.34013
666	-0.33304
667	2.59599
668	0.82467
669	1.78904
670	3.49634
671	5.95
672	0.86535
673	4.81182
674	0.17248
675	13.58061
676	18.20688
677	6.62736
678	26.66194
679	5.43699
680	3.84959
681	2.23244
682	21.64346
683	1.6291
684	17.14407
685	56.27069
686	0.13119
687	0.61374
688	2.54912
689	-0.12235
690	16.68867
691	1.18683
692	0.48083
693	6.54345
694	1.59388
695	8.80049
696	0.06288
697	-1.49731
698	-0.89088
699	3.72531
700	-0.37303
701	-0.59699
702	3.18776
703	-0.86801
704	4.36992
705	23.00521
706	0.78822
707	-1.06057
708	1.69508
709	-0.4885
710	-1.12138
711	11.46954
712	2.72141
713	28.08636
714	-18.74309
715	-40.10153
716	4.85693
717	-0.80352
718	-0.33062
719	13.92718
720	1.05786
721	1.3793
722	-0.05655
723	3.49888
724	-0.55824
725	2.80177
726	2.91728
727	7.67607
728	0.74931
729	-0.56058
730	12.503
731	4.39116
732	5.04722
733	1.75999
734	0.07971
735	18.4059
736	9.07172
737	11.53786
738	0.75645
739	3.79356
740	1.80179
741	75.26182
742	1.99591
743	14.48905
744	13.55471
745	2.56364
746	16.44623
747	7.64372
748	27.97141
749	7.99036
750	3.76159
751	6.78778
752	1.81331
753	2.4986
754	-1.84562
755	17.69255
756	3.68048
757	60.73282
758	31.12788
759	29.15115
760	1.80351
761	5.13243
762	146.04706
763	-1.85378
764	3.43818
765	20.72948
766	4.60372
767	34.2481
768	0.96851
769	6.03518
770	-0.38086
771	1.95481
772	3.75784
773	-1.30927
774	3.17476
775	-3.396
776	49.09901
777	2.08
778	4.1473
779	3.15196
780	5.33534
781	2.12363
782	-1.58684
783	8.14677
784	9.71222
785	0.07062
786	16.27044
787	1.13884
788	10.02574
789	0.23412
790	1.62735
791	-1.06309
792	0.06677
793	3.36517
794	-0.52199
795	3.66884
796	3.38174
797	4.67274
798	-1.53498
799	4.09494
800	7.02382
801	-0.96486
802	1.42856
803	31.0718
804	1.3599
805	0.09683
806	4.151
807	4.25675
808	5.06556
809	4.14137
810	14.10436
811	51.56337
812	25.81211
813	-0.32571
814	5.93556
815	4.72823
816	0.78911
817	14.88784
818	5.40742
819	2.18552
820	1.16831
821	80.74716
822	5.67338
823	-1.73751
824	6.6831
825	0.33235
826	1.10929
827	-1.89318
828	5.28467
829	-2.08551
830	5.37307
831	7.23464
832	-1.21932
833	10.33494
834	-0.25954
835	10.59696
836	-0.04266
837	-0.09242
838	3.31681
839	4.70406
840	35.29342
841	6.60183
842	3.17909
843	3.68367
844	8.38896
845	1.0311
846	-8.07214
847	-13.37008
848	4.97794
849	-0.16299
850	3.07199
851	-1.60983
852	0.20024
853	0.3916
854	0.10822
855	-2.23846
856	11.71653
857	-0.38754
858	0.03959
859	3.26935
860	0.65398
861	3.71006
862	6.11773
863	0.40315
864	0.8699
865	6.91387
866	21.14481
867	7.76237
868	2.07018
869	13.37892
870	3.77728
871	18.03811
872	-0.2133
873	-0.57778
874	3.68335
875	5.91981
876	30.49272
877	2.54533
878	-1.09755
879	20.34887
880	7.90968
881	1.69057
882	7.74021
883	1.46164
884	9.96606
885	-2.16863
886	-18.63425
887	-2.4197
888	8.5652
889	1.4379
890	2.69281
891	67.26691
892	44.28182
893	9.41256
894	37.809
895	7.51446
896	2.86456
897	1.50827
898	1.88676
899	2.31904
900	13.71206
901	119.83454
902	1.9919
903	-0.90006
904	0.39913
905	2.00716
906	6.3418
907	-1.09696
908	59.56424
909	7.11002
910	-0.80991
911	1.96739
912	0.76185
913	1.9758
914	0.9087
915	1.82545
916	2.13807
917	4.79736
918	2.35035
919	1.70284
920	-4.87916
921	6.0027
922	2.58714
923	9.75753
924	3.48701
925	2.64304
926	0.26761
927	10.42208
928	0.26666
929	5.8978
930	-0.23427
931	0.30507
932	4.55175
933	2.4659
934	3.17714
935	27.54189
936	-0.0529
937	2.07676
938	4.96574
939	22.94207
940	-0.56616
941	-1.81538
942	1.8866
943	0.85561
944	5.99588
945	4.35621
946	-3.4067
947	12.20692
948	8.71697
949	3.29525
950	25.24937
951	5.96395
952	-1.29247
953	1.77483
954	1.64861
955	3.59559
956	1.685
957	1.14588
958	7.07281
959	0.72452
960	0.08626
961	-0.94734
962	0.12434
963	6.64718
964	0.54329
965	3.60867
966	-2.14554
967	-2.9749
968	0.35373
969	16.33505
970	0.47116
971	6.4025
972	-2.27817
973	6.93934
974	3.54129
975	-1.26684
976	4.89455
977	7.60721
978	80.91378
979	3.34817
980	2.53715
981	2.52524
982	9.50441
983	0.76034
984	28.5151
985	-1.45766
986	9.60799
987	2.23379
988	17.32579
989	4.96555
990	0.93486
991	1.81856
992	31.81161
993	-3.40502
994	4.03832
995	-1.5076
996	4.34135
997	8.47566
998	2.34603
999	28.02091
1000	-0.11677
