Data from 22_USB2G479881__0__15-46-58-964.txt Node

Date: Wed Feb 25 15:46:58 GMT 2026
User: Student
Spectrometer: USB2G47988
Scans to average: 500
Trigger mode: 4
Integration Time (sec): 1.500000E-2
Electric dark correction enabled: true
Boxcar width: 0
XAxis mode: Wavelengths
Number of Pixels in Spectrum: 651
>>>>>Begin Spectral Data<<<<<
350	-0.41877
351	-0.21041
352	0.22461
353	0.17511
354	0.22946
355	0.42465
356	0.48632
357	0.62038
358	0.75782
359	1.05643
360	1.12814
361	1.54281
362	1.63943
363	1.42576
364	1.47745
365	2.02366
366	2.05322
367	1.98643
368	2.53735
369	2.47488
370	2.38019
371	2.56898
372	2.47385
373	2.4648
374	2.78488
375	2.69257
376	2.934
377	3.55276
378	3.44249
379	3.14944
380	3.39109
381	3.52216
382	3.78112
383	3.56023
384	4.1121
385	3.75419
386	4.14531
387	4.05069
388	4.47693
389	4.40709
390	4.16299
391	4.29521
392	4.39135
393	4.8832
394	4.84696
395	4.60264
396	4.64152
397	5.08132
398	5.4262
399	5.07506
400	5.18612
401	5.3272
402	5.02637
403	5.21544
404	5.01276
405	5.22164
406	5.9441
407	5.32971
408	5.26732
409	5.57576
410	5.64831
411	5.66038
412	5.2843
413	5.62864
414	5.41752
415	5.32927
416	5.59815
417	5.9303
418	5.65612
419	5.73036
420	5.55764
421	6.00192
422	6.05006
423	5.87675
424	5.87136
425	6.9145
426	6.1457
427	5.76367
428	5.87146
429	6.32925
430	6.19631
431	6.20811
432	6.21927
433	6.37327
434	6.1618
435	6.06394
436	6.794
437	6.06679
438	6.27353
439	6.79508
440	6.65064
441	6.11584
442	6.06648
443	6.38991
444	6.21547
445	5.58031
446	9.21128
447	6.32361
448	6.30854
449	6.44793
450	5.9856
451	6.28821
452	6.2716
453	6.30352
454	6.9118
455	6.44502
456	6.43144
457	6.41098
458	6.2911
459	6.40511
460	6.4481
461	6.40327
462	6.12758
463	6.24792
464	6.24655
465	5.96264
466	6.03771
467	6.23785
468	6.4353
469	6.30874
470	6.07673
471	5.82991
472	5.85015
473	6.1009
474	6.13699
475	6.16469
476	6.00718
477	5.87592
478	5.81875
479	6.21113
480	5.82006
481	6.05493
482	5.92947
483	5.9042
484	5.77299
485	5.80296
486	5.75482
487	5.6769
488	5.72999
489	6.27939
490	5.70377
491	5.45993
492	5.85497
493	5.57387
494	5.37746
495	5.42461
496	5.664
497	5.54199
498	5.69097
499	5.51999
500	5.44518
501	5.46089
502	5.37396
503	5.33783
504	5.61055
505	5.3849
506	5.16302
507	5.22363
508	5.35374
509	7.07949
510	6.01436
511	5.29134
512	5.20492
513	5.32689
514	5.28605
515	5.22615
516	5.08461
517	5.28409
518	5.28917
519	5.0341
520	5.40023
521	5.15856
522	5.46096
523	5.13694
524	5.07964
525	6.83359
526	5.51061
527	5.49948
528	5.33481
529	5.73138
530	5.35633
531	5.16306
532	5.0298
533	5.14854
534	5.214
535	5.1965
536	5.39769
537	5.94709
538	5.02895
539	4.87422
540	4.71703
541	4.66609
542	4.64861
543	4.73273
544	4.86505
545	4.94011
546	5.36165
547	4.74889
548	4.92456
549	4.84063
550	4.71988
551	4.54599
552	4.57438
553	4.52554
554	4.54387
555	4.75762
556	4.42969
557	4.31219
558	4.50241
559	4.58919
560	4.32915
561	4.21403
562	4.2426
563	4.17552
564	4.2689
565	3.87997
566	4.16004
567	4.21271
568	4.0028
569	4.39014
570	3.8863
571	4.04272
572	3.96279
573	4.04603
574	3.90234
575	3.96277
576	3.99543
577	3.99641
578	3.75938
579	3.86783
580	3.68543
581	3.82202
582	4.17286
583	3.91777
584	3.69996
585	4.21714
586	3.69245
587	3.70064
588	3.55581
589	3.58869
590	3.88755
591	3.72137
592	3.59747
593	3.46009
594	3.94781
595	3.6227
596	3.95969
597	3.99715
598	4.09036
599	3.45215
600	3.58528
601	3.98998
602	3.97029
603	3.64284
604	3.70556
605	4.37528
606	3.74789
607	3.52553
608	3.53778
609	3.78316
610	3.38713
611	3.43486
612	3.35608
613	3.48579
614	4.93776
615	3.87015
616	3.68919
617	3.62177
618	3.66989
619	3.64778
620	3.53294
621	3.78102
622	3.54413
623	3.56485
624	3.45211
625	3.77422
626	3.55923
627	3.91527
628	4.06576
629	3.75736
630	3.87183
631	3.87959
632	4.97031
633	4.07433
634	4.04931
635	3.94774
636	3.95274
637	4.13354
638	4.30769
639	4.1632
640	5.17279
641	4.6385
642	4.84209
643	5.03358
644	5.2795
645	6.93906
646	7.29234
647	6.76638
648	7.06537
649	7.38326
650	8.73407
651	9.78884
652	12.46864
653	21.82676
654	54.4281
655	1287.63783
656	332.70911
657	45.5628
658	17.74972
659	11.14876
660	7.95534
661	6.55585
662	5.6619
663	5.82717
664	4.7747
665	4.27203
666	3.98782
667	3.82305
668	3.53884
669	3.57063
670	3.5601
671	3.37548
672	3.18183
673	3.34302
674	3.22816
675	3.78702
676	3.44224
677	3.40975
678	3.64006
679	3.23786
680	2.81532
681	2.8762
682	3.11593
683	2.81463
684	3.08209
685	3.57707
686	2.8136
687	2.59856
688	2.8564
689	2.56146
690	2.83715
691	2.69142
692	2.39155
693	2.8256
694	2.59177
695	2.91715
696	2.57026
697	2.46601
698	2.42742
699	2.50362
700	2.44818
701	2.69777
702	2.55293
703	2.25717
704	2.19173
705	2.64265
706	2.49438
707	2.38716
708	2.40556
709	2.24464
710	2.51152
711	2.76499
712	2.57565
713	2.97059
714	2.27313
715	6.64454
716	2.80059
717	2.39851
718	2.33856
719	2.74322
720	2.32888
721	2.49175
722	2.22065
723	2.52185
724	2.30216
725	2.61511
726	2.33472
727	2.60226
728	2.15562
729	2.31372
730	3.44616
731	2.96424
732	2.5117
733	2.39334
734	2.35585
735	2.32495
736	2.53213
737	2.81407
738	2.43966
739	2.55973
740	2.24403
741	3.3408
742	2.34132
743	2.84604
744	2.44594
745	2.39692
746	2.34194
747	2.22196
748	2.64273
749	2.49589
750	2.16851
751	2.40973
752	2.36587
753	2.39545
754	2.20628
755	2.42234
756	2.2769
757	2.83904
758	3.24267
759	2.75039
760	2.22606
761	2.29156
762	3.83662
763	2.4932
764	2.15917
765	2.79791
766	2.65748
767	2.83235
768	2.12684
769	2.25464
770	1.97709
771	2.21174
772	2.3756
773	2.06534
774	2.13013
775	2.16507
776	3.11588
777	2.41884
778	2.37409
779	2.16954
780	2.17708
781	2.28488
782	2.04204
783	2.73458
784	2.38646
785	2.14552
786	2.36482
787	2.32173
788	3.11917
789	2.10745
790	2.30203
791	2.12112
792	1.88323
793	2.30483
794	2.19929
795	2.2695
796	2.17791
797	2.10976
798	2.1715
799	2.32728
800	2.04792
801	2.17868
802	2.17362
803	2.81443
804	2.04124
805	2.11681
806	2.05986
807	2.24325
808	2.33885
809	2.12748
810	2.3677
811	2.86862
812	2.90464
813	1.97722
814	2.08406
815	2.24488
816	1.99972
817	2.58829
818	2.10732
819	2.16695
820	2.18467
821	3.02595
822	2.35092
823	2.12488
824	2.21337
825	2.12114
826	2.05299
827	1.85944
828	1.94801
829	2.22197
830	2.33445
831	2.10282
832	1.92831
833	2.25684
834	2.24386
835	2.13522
836	1.87706
837	1.85422
838	2.14929
839	2.18428
840	2.56303
841	2.13885
842	2.34037
843	2.16838
844	2.14645
845	2.23519
846	1.97869
847	3.22725
848	2.25813
849	2.01006
850	2.16773
851	2.01627
852	2.1072
853	2.09978
854	1.89148
855	2.0163
856	2.34603
857	2.10118
858	2.13419
859	2.25161
860	2.09656
861	2.21206
862	2.23923
863	1.90104
864	1.88794
865	2.34272
866	2.36727
867	1.98114
868	1.99912
869	2.16871
870	2.19832
871	2.59945
872	3.56586
873	1.87159
874	1.97791
875	2.04963
876	2.3469
877	2.1238
878	2.00859
879	2.44185
880	2.27178
881	2.21102
882	2.1514
883	1.89256
884	2.2338
885	1.8714
886	2.19187
887	2.84253
888	2.21944
889	2.22446
890	2.07074
891	2.57327
892	3.79657
893	2.35292
894	2.63138
895	2.2828
896	2.19995
897	2.07209
898	1.90963
899	2.064
900	2.38635
901	4.20123
902	2.29896
903	2.12445
904	2.05547
905	2.19517
906	1.87054
907	1.91774
908	2.8417
909	2.27863
910	2.04486
911	2.14804
912	2.16201
913	2.04741
914	2.31663
915	2.20254
916	2.23511
917	2.21754
918	2.14543
919	2.15751
920	2.05541
921	2.42092
922	2.50991
923	2.12732
924	2.11254
925	1.98193
926	1.89818
927	2.04437
928	1.86027
929	1.90305
930	2.07382
931	2.06968
932	2.04806
933	2.05358
934	2.43046
935	2.27982
936	1.90909
937	1.96671
938	2.17865
939	2.43094
940	2.15017
941	2.02387
942	1.81461
943	2.1666
944	2.14375
945	3.25988
946	2.01546
947	2.67965
948	2.33094
949	2.0919
950	2.3106
951	2.26136
952	2.06048
953	2.03734
954	2.10151
955	2.02821
956	1.92242
957	1.99627
958	2.17945
959	2.00707
960	2.12999
961	1.98525
962	1.93711
963	2.14891
964	2.04342
965	2.22704
966	1.93791
967	1.95547
968	1.87087
969	2.68719
970	2.05172
971	2.21788
972	1.84711
973	2.01115
974	2.40516
975	2.02442
976	2.12105
977	2.23787
978	3.34093
979	2.27134
980	2.28673
981	2.1606
982	2.32513
983	2.09059
984	2.66045
985	2.06604
986	2.34694
987	1.98985
988	2.41435
989	2.01497
990	2.09609
991	1.98301
992	2.32616
993	2.23599
994	2.43426
995	2.01144
996	2.12444
997	2.40468
998	2.66466
999	2.60945
1000	2.10775
