Data from 36_USB2G479881__0__15-59-14-854.txt Node

Date: Wed Feb 25 15:59:14 GMT 2026
User: Student
Spectrometer: USB2G47988
Scans to average: 500
Trigger mode: 4
Integration Time (sec): 1.500000E-2
Electric dark correction enabled: true
Boxcar width: 0
XAxis mode: Wavelengths
Number of Pixels in Spectrum: 651
>>>>>Begin Spectral Data<<<<<
350	-0.47846
351	-0.35916
352	0.15147
353	0.32891
354	0.35724
355	0.66594
356	0.47997
357	0.61752
358	0.89676
359	1.00086
360	1.26287
361	1.14551
362	1.4161
363	1.46857
364	1.57642
365	2.20439
366	1.86009
367	1.91917
368	2.33269
369	2.38848
370	2.32806
371	2.55999
372	2.51235
373	2.62072
374	2.59371
375	2.92194
376	2.96611
377	3.65657
378	3.31169
379	3.08952
380	3.06855
381	3.75589
382	3.99628
383	3.65473
384	4.09197
385	3.91546
386	4.29316
387	3.94837
388	4.37139
389	4.301
390	4.30409
391	4.22364
392	4.2178
393	4.53878
394	4.70357
395	4.44708
396	4.52253
397	5.14057
398	5.41473
399	4.83398
400	5.04176
401	5.11415
402	4.95457
403	5.04523
404	4.93406
405	5.02747
406	5.61215
407	5.33366
408	5.03636
409	5.27325
410	5.39073
411	5.19771
412	5.42183
413	5.46515
414	5.26522
415	5.49463
416	5.54177
417	5.48709
418	5.50134
419	5.50621
420	5.66086
421	5.89208
422	5.96562
423	5.64736
424	5.78209
425	6.79227
426	6.04093
427	5.84766
428	5.76603
429	6.44032
430	6.25967
431	6.52093
432	5.9964
433	6.12193
434	6.13867
435	5.88905
436	6.61982
437	6.36318
438	6.18863
439	6.45375
440	6.35398
441	5.99198
442	6.12814
443	6.37099
444	5.98464
445	5.55865
446	9.36246
447	5.94873
448	6.06872
449	6.19457
450	6.21521
451	5.97669
452	5.9658
453	6.21644
454	6.38569
455	6.07457
456	5.99623
457	6.08257
458	5.93224
459	6.15383
460	5.95076
461	5.89762
462	6.03317
463	5.9433
464	5.94062
465	5.76964
466	5.84546
467	5.80755
468	6.17573
469	6.09533
470	6.00556
471	5.61883
472	5.69529
473	5.94069
474	5.68505
475	5.71204
476	5.5171
477	5.87756
478	5.77277
479	5.87538
480	5.6693
481	6.0693
482	5.513
483	5.65317
484	5.60217
485	5.32097
486	5.63357
487	5.4692
488	5.40793
489	5.89875
490	5.67705
491	5.51225
492	6.0048
493	5.26752
494	5.42675
495	5.5038
496	5.40414
497	5.63691
498	5.59836
499	5.47196
500	5.42553
501	5.63498
502	5.24826
503	5.16349
504	5.39275
505	5.22905
506	5.04302
507	4.87392
508	5.00774
509	7.23295
510	5.55089
511	4.99322
512	4.92221
513	5.31368
514	5.04466
515	4.95527
516	4.75635
517	4.82761
518	4.98519
519	4.79163
520	5.2355
521	5.19027
522	5.08226
523	4.77941
524	4.69805
525	6.41199
526	5.49911
527	5.11195
528	4.68636
529	5.35918
530	4.83692
531	4.61607
532	4.66486
533	4.58844
534	4.60257
535	4.81655
536	5.05559
537	5.63679
538	4.7603
539	4.57439
540	4.52496
541	4.4372
542	4.32435
543	4.35938
544	4.38983
545	4.40055
546	5.05485
547	4.21754
548	4.44445
549	4.44615
550	4.25497
551	4.09844
552	4.19112
553	4.04487
554	4.03337
555	4.36461
556	4.19313
557	4.32814
558	4.62937
559	4.29907
560	3.99979
561	3.92245
562	4.25781
563	4.0942
564	4.15691
565	4.13008
566	4.02808
567	4.00441
568	3.79517
569	4.08591
570	3.93986
571	3.89124
572	3.86774
573	3.65711
574	3.67635
575	3.86476
576	3.69913
577	3.89784
578	3.73282
579	3.6841
580	3.68961
581	3.67251
582	3.85833
583	3.59237
584	3.71129
585	3.85382
586	3.79064
587	3.60204
588	3.52397
589	3.44811
590	3.66614
591	3.48387
592	3.48236
593	3.67186
594	3.95783
595	3.42439
596	3.55906
597	3.79947
598	4.10289
599	3.53773
600	3.34245
601	3.6771
602	3.77141
603	3.26733
604	3.43131
605	4.02248
606	3.29084
607	3.23954
608	3.3374
609	3.2053
610	3.2149
611	3.10298
612	3.23887
613	3.34909
614	4.31951
615	3.54593
616	3.26478
617	3.29383
618	3.13621
619	3.19036
620	3.09865
621	3.13858
622	3.04167
623	3.12159
624	3.06303
625	3.24631
626	3.03334
627	3.26869
628	3.60869
629	3.40147
630	3.2001
631	3.24981
632	4.18524
633	3.3856
634	3.29582
635	3.14711
636	3.01081
637	2.98401
638	3.09381
639	3.19869
640	4.02216
641	3.16448
642	3.37556
643	3.05248
644	3.23317
645	4.33615
646	4.96869
647	3.50311
648	3.49266
649	3.54182
650	3.93165
651	3.8278
652	4.29999
653	6.03849
654	11.63041
655	196.77876
656	82.67271
657	22.16537
658	7.50169
659	5.00708
660	3.92013
661	3.51889
662	3.28906
663	3.84493
664	2.92274
665	2.96686
666	2.862
667	2.89886
668	2.95912
669	2.82674
670	2.75428
671	2.84424
672	2.72258
673	2.77496
674	2.7464
675	3.62741
676	2.9705
677	2.99077
678	3.20323
679	2.98173
680	2.54155
681	2.72218
682	2.91337
683	2.57226
684	2.91184
685	3.47973
686	2.75119
687	2.42944
688	2.47378
689	2.48247
690	2.68495
691	2.53
692	2.39049
693	2.60355
694	2.65402
695	2.7454
696	2.43903
697	2.31383
698	2.57326
699	2.55225
700	2.39386
701	2.44706
702	2.40551
703	2.40518
704	2.49143
705	2.72265
706	2.64492
707	2.42681
708	2.28633
709	2.25394
710	2.32224
711	2.67547
712	2.38852
713	2.85142
714	2.46261
715	6.14396
716	2.55676
717	2.41367
718	2.37709
719	2.86497
720	2.38234
721	2.33444
722	2.39037
723	2.56821
724	2.33945
725	2.4906
726	2.43652
727	2.49385
728	2.48145
729	2.39453
730	3.47666
731	2.7716
732	2.44745
733	2.31171
734	2.15123
735	2.40566
736	2.43327
737	2.88855
738	2.31215
739	2.57979
740	2.45663
741	3.47341
742	2.21444
743	2.83662
744	2.37047
745	2.31949
746	2.53661
747	2.47135
748	2.6981
749	2.40575
750	2.41584
751	2.40555
752	2.1336
753	2.20591
754	1.91711
755	2.45965
756	2.15007
757	2.98233
758	3.34957
759	2.97041
760	2.24297
761	2.38809
762	3.67119
763	2.27762
764	2.26363
765	2.48112
766	2.44617
767	2.85988
768	2.28562
769	2.22263
770	2.18872
771	2.3376
772	2.314
773	2.0688
774	2.20664
775	2.12109
776	2.73861
777	2.26815
778	2.31929
779	2.08572
780	2.2545
781	2.40158
782	2.11507
783	2.60415
784	2.43169
785	2.18581
786	2.43789
787	2.35024
788	3.10966
789	2.26404
790	2.1389
791	2.02324
792	2.27284
793	2.27587
794	2.04326
795	2.06054
796	2.20122
797	2.10748
798	2.05396
799	2.28447
800	2.33719
801	2.32815
802	1.84558
803	2.74906
804	2.15106
805	2.01012
806	2.16508
807	2.27327
808	2.07251
809	2.15159
810	2.22383
811	2.67669
812	3.04915
813	2.17439
814	2.13067
815	2.21744
816	2.1018
817	2.62175
818	2.26303
819	2.23466
820	1.94327
821	2.94885
822	2.52589
823	2.10346
824	2.05091
825	2.20063
826	2.22409
827	2.10502
828	2.22181
829	1.8558
830	2.25743
831	2.19874
832	2.2592
833	2.28828
834	2.07841
835	2.12185
836	2.16703
837	2.10434
838	2.27468
839	2.30202
840	2.45742
841	2.14251
842	2.5256
843	2.17636
844	2.04589
845	2.00579
846	2.0457
847	3.17495
848	2.19137
849	2.10752
850	2.22013
851	2.08461
852	2.05516
853	1.87606
854	2.08518
855	2.21871
856	2.23436
857	2.0359
858	2.10819
859	2.1194
860	1.97215
861	2.17911
862	2.46113
863	1.94985
864	1.91916
865	2.2086
866	2.4205
867	2.49674
868	2.29948
869	2.32347
870	2.24348
871	2.77587
872	3.62365
873	2.10438
874	2.16176
875	2.29659
876	2.5506
877	2.02759
878	1.9938
879	2.4094
880	2.27917
881	1.99213
882	2.34386
883	2.10941
884	2.24116
885	2.06064
886	2.40067
887	3.00579
888	2.22875
889	1.94451
890	1.95892
891	2.53062
892	3.73692
893	2.49641
894	2.58198
895	2.1571
896	2.10244
897	1.97494
898	2.21492
899	2.13831
900	2.48075
901	4.25919
902	2.24928
903	2.00351
904	1.84714
905	1.98058
906	2.05881
907	2.00527
908	3.02834
909	2.15639
910	2.0067
911	1.94295
912	1.98144
913	2.08509
914	2.0731
915	2.3238
916	2.15167
917	2.2283
918	2.02413
919	1.93861
920	1.91094
921	2.33631
922	2.73264
923	2.11229
924	2.3574
925	2.0296
926	2.0362
927	2.03041
928	1.94587
929	2.08662
930	1.95427
931	2.08413
932	2.17666
933	2.26431
934	2.43483
935	2.10945
936	2.05789
937	1.96249
938	2.34927
939	2.45174
940	2.11346
941	1.95785
942	1.93428
943	1.92692
944	2.20096
945	3.47049
946	2.05512
947	2.41349
948	2.37969
949	2.10252
950	2.41567
951	1.98732
952	2.0856
953	2.14127
954	2.14252
955	2.0834
956	2.16085
957	1.86052
958	2.26044
959	1.98223
960	2.18068
961	2.09984
962	1.93592
963	2.16282
964	2.03021
965	2.16134
966	1.83137
967	1.96388
968	2.1112
969	2.55786
970	2.02943
971	2.33177
972	1.91239
973	2.16679
974	2.26945
975	2.09985
976	2.18985
977	2.22469
978	2.64226
979	2.29068
980	2.30151
981	2.13461
982	2.2613
983	1.97421
984	2.73394
985	1.98085
986	2.64755
987	2.00784
988	2.58523
989	2.1408
990	2.14111
991	1.9765
992	2.35738
993	2.22053
994	2.41802
995	2.22965
996	2.03017
997	2.70899
998	2.50451
999	2.37001
1000	2.0519
