Data from 43_USB2G479881__0__16-04-25-824.txt Node

Date: Wed Feb 25 16:04:25 GMT 2026
User: Student
Spectrometer: USB2G47988
Scans to average: 500
Trigger mode: 4
Integration Time (sec): 1.500000E-2
Electric dark correction enabled: true
Boxcar width: 0
XAxis mode: Wavelengths
Number of Pixels in Spectrum: 651
>>>>>Begin Spectral Data<<<<<
350	-0.51202
351	-0.21654
352	0.1721
353	0.22969
354	0.32677
355	0.44401
356	0.56544
357	0.95292
358	0.82097
359	0.96571
360	1.15084
361	1.50569
362	1.44004
363	1.41616
364	1.57248
365	1.95322
366	1.97603
367	1.84416
368	2.54135
369	2.34083
370	2.43012
371	2.60132
372	2.36326
373	2.67953
374	2.77084
375	2.69235
376	2.70447
377	3.40148
378	3.07937
379	3.0736
380	3.1611
381	3.37769
382	3.92639
383	3.46806
384	4.1274
385	3.69027
386	3.99593
387	3.93778
388	4.31029
389	4.29044
390	3.9178
391	4.16731
392	4.10253
393	4.54601
394	4.48361
395	4.32654
396	4.2668
397	4.84109
398	5.11786
399	4.81429
400	4.76276
401	5.10214
402	4.93266
403	4.72664
404	4.82765
405	4.86395
406	5.50793
407	5.02886
408	5.22115
409	5.02926
410	5.2143
411	5.30783
412	5.03153
413	5.11518
414	5.25947
415	5.25523
416	5.53057
417	5.16942
418	5.37748
419	5.44145
420	5.29066
421	5.5687
422	5.89518
423	5.86935
424	5.62117
425	6.72132
426	6.05554
427	5.60993
428	5.73596
429	6.29096
430	6.35788
431	6.3774
432	5.7302
433	6.0549
434	5.81519
435	5.6501
436	6.26592
437	6.09156
438	6.10323
439	6.31287
440	6.25181
441	5.7966
442	5.76897
443	6.29369
444	5.88809
445	5.32814
446	9.02651
447	6.19651
448	5.94338
449	5.9457
450	5.85516
451	5.97217
452	5.7139
453	5.99719
454	6.22737
455	5.85161
456	5.94787
457	5.92269
458	5.92124
459	5.97094
460	5.73618
461	5.87277
462	5.79619
463	5.71116
464	5.69254
465	5.57944
466	5.64097
467	5.59558
468	6.18942
469	5.81491
470	5.67449
471	5.59212
472	5.37467
473	5.63212
474	5.59595
475	5.75214
476	5.80326
477	5.58801
478	5.5502
479	5.63888
480	5.43102
481	5.91658
482	5.61305
483	5.59244
484	5.30134
485	5.44702
486	5.61366
487	5.44025
488	5.46371
489	5.95576
490	5.48591
491	5.36466
492	5.58436
493	5.23163
494	5.33033
495	5.27717
496	5.27486
497	5.43708
498	5.46161
499	5.43789
500	5.15683
501	5.44916
502	5.18648
503	4.99432
504	5.42538
505	5.1783
506	5.10599
507	4.97983
508	5.26489
509	6.90651
510	5.32887
511	5.17506
512	4.82269
513	4.98092
514	5.10748
515	4.90641
516	4.9164
517	4.94093
518	5.182
519	4.54646
520	5.20045
521	4.59687
522	4.82869
523	4.89795
524	4.85072
525	6.13156
526	5.24983
527	4.85747
528	4.82365
529	5.00958
530	4.93627
531	4.83263
532	4.3877
533	4.75148
534	4.5073
535	4.68617
536	4.72617
537	5.53629
538	4.71506
539	4.45408
540	4.48788
541	4.38214
542	4.26675
543	4.14257
544	4.02871
545	4.36335
546	5.28574
547	4.45837
548	4.39611
549	4.41945
550	4.47935
551	4.08489
552	4.14312
553	4.01372
554	4.16479
555	4.26397
556	4.22396
557	4.14549
558	4.25489
559	4.10878
560	4.07005
561	3.73644
562	3.84925
563	4.16418
564	4.01821
565	3.8679
566	3.98416
567	3.89951
568	3.9327
569	3.88921
570	3.7584
571	3.73685
572	3.78739
573	3.72284
574	3.5241
575	3.57099
576	3.81189
577	3.68862
578	3.69164
579	3.50275
580	3.70808
581	3.81621
582	3.78843
583	3.56007
584	3.47285
585	4.03922
586	3.44387
587	3.42498
588	3.28229
589	3.4111
590	3.57751
591	3.46483
592	3.2898
593	3.44734
594	3.7318
595	3.64817
596	3.49797
597	3.67179
598	3.92427
599	3.36844
600	3.53706
601	3.77631
602	3.79868
603	3.44426
604	3.40623
605	4.01659
606	3.45644
607	3.15973
608	3.35288
609	3.24495
610	3.193
611	3.26513
612	3.10857
613	3.24453
614	4.17049
615	3.57568
616	3.02344
617	3.31744
618	3.48423
619	3.19755
620	3.11693
621	3.24826
622	2.99242
623	3.18262
624	3.04388
625	3.10026
626	3.14386
627	3.08432
628	3.5039
629	3.29201
630	2.76295
631	3.03667
632	4.2958
633	3.22556
634	3.09733
635	2.99681
636	2.88904
637	3.09129
638	2.8744
639	3.01903
640	3.64847
641	2.93059
642	2.93103
643	3.03612
644	2.85892
645	4.09541
646	4.80628
647	3.28232
648	3.16563
649	3.0411
650	3.38873
651	3.26854
652	3.27657
653	4.21974
654	5.54879
655	54.39295
656	46.20179
657	14.60969
658	5.49516
659	4.08129
660	3.19211
661	2.99649
662	2.78865
663	3.29066
664	2.96829
665	2.61871
666	2.7037
667	2.71024
668	2.48306
669	2.47627
670	2.56922
671	2.6962
672	2.64087
673	2.78799
674	2.52761
675	3.26714
676	2.94355
677	3.13648
678	3.27507
679	2.88409
680	2.51328
681	2.46483
682	2.58833
683	2.80293
684	2.78756
685	3.12667
686	2.58489
687	2.57572
688	2.52377
689	2.56184
690	2.68274
691	2.52013
692	2.09758
693	2.83442
694	2.55065
695	2.78974
696	2.57906
697	2.38253
698	2.29452
699	2.5752
700	2.42416
701	2.27279
702	2.41154
703	2.22851
704	2.43973
705	2.71918
706	2.4027
707	2.24581
708	2.31878
709	2.31213
710	2.15403
711	2.66585
712	2.5069
713	2.93781
714	2.21556
715	6.5393
716	2.75357
717	2.43658
718	2.47118
719	2.69331
720	2.41786
721	2.40427
722	2.34687
723	2.65428
724	2.18457
725	2.49756
726	2.1757
727	2.35156
728	2.25955
729	2.34522
730	3.28086
731	2.80924
732	2.36423
733	2.30834
734	2.28384
735	2.54935
736	2.54806
737	2.95905
738	2.36306
739	2.41703
740	2.24117
741	3.44567
742	2.36734
743	2.82439
744	2.44654
745	2.18296
746	2.54848
747	2.49903
748	2.65131
749	2.2984
750	2.28533
751	2.30495
752	2.19245
753	2.41437
754	2.19368
755	2.37558
756	2.1761
757	2.83276
758	3.23992
759	2.79013
760	2.36705
761	2.23622
762	2.64122
763	2.25985
764	2.12307
765	2.38109
766	2.10009
767	2.76622
768	2.16468
769	2.04545
770	2.20623
771	2.22483
772	2.18738
773	1.95374
774	2.27431
775	2.29481
776	2.82424
777	2.31333
778	2.22936
779	2.20243
780	2.01966
781	1.96108
782	2.08055
783	2.5099
784	2.25436
785	2.19614
786	2.46385
787	2.17834
788	3.11548
789	2.12376
790	2.05856
791	2.12862
792	2.01274
793	2.22219
794	2.30586
795	2.10965
796	2.10038
797	2.15267
798	2.21847
799	2.24357
800	2.36473
801	2.08581
802	2.1066
803	2.63287
804	2.04901
805	1.9959
806	2.23047
807	2.23437
808	2.22928
809	2.02895
810	2.38588
811	2.7011
812	2.9647
813	2.27078
814	2.18276
815	2.11131
816	2.34341
817	2.4367
818	2.28336
819	2.10878
820	2.06022
821	2.90932
822	2.40674
823	1.9275
824	2.07867
825	2.07995
826	2.08912
827	2.00199
828	2.12236
829	2.17122
830	2.15426
831	2.12767
832	1.8157
833	2.17971
834	2.06889
835	2.12236
836	2.0024
837	1.92384
838	2.04559
839	2.24939
840	2.40419
841	2.22025
842	2.20659
843	1.92641
844	2.02205
845	2.05609
846	1.84866
847	2.25049
848	2.24039
849	1.93606
850	2.1514
851	1.993
852	1.89898
853	1.85776
854	1.98586
855	2.0493
856	2.3661
857	2.2467
858	2.01769
859	2.26188
860	2.02657
861	2.2642
862	2.46455
863	2.06361
864	2.21896
865	2.31007
866	2.1955
867	2.07623
868	2.24943
869	2.36486
870	2.33098
871	2.84518
872	3.58678
873	1.92668
874	2.06475
875	2.215
876	2.56662
877	2.11199
878	1.91355
879	2.37512
880	2.28717
881	2.25187
882	2.09672
883	2.00988
884	2.28779
885	1.91306
886	2.3792
887	2.90487
888	2.26362
889	2.0662
890	2.15582
891	2.57571
892	3.89734
893	2.29487
894	3.0168
895	2.22822
896	2.07066
897	2.0356
898	2.23934
899	2.24399
900	2.38155
901	4.19897
902	2.28321
903	2.11924
904	2.14801
905	2.10791
906	2.07041
907	2.0027
908	2.78785
909	2.20566
910	2.02784
911	1.96686
912	2.09562
913	2.04028
914	2.11219
915	2.15318
916	2.0343
917	2.21583
918	2.12982
919	2.04449
920	1.90529
921	2.51995
922	2.60061
923	2.19989
924	2.31168
925	2.0598
926	1.95306
927	2.1158
928	2.17185
929	2.08202
930	2.02891
931	2.07041
932	1.98322
933	2.28527
934	2.14529
935	2.17488
936	1.77855
937	2.0238
938	2.22164
939	2.21042
940	2.12804
941	1.98602
942	2.0766
943	1.87682
944	1.91987
945	3.43317
946	2.06087
947	2.4326
948	2.42596
949	2.18474
950	2.40713
951	2.1655
952	2.19632
953	1.96022
954	2.09345
955	2.21212
956	1.98177
957	2.01214
958	2.0515
959	2.07335
960	1.92862
961	2.0304
962	1.96528
963	2.11562
964	2.20637
965	2.07814
966	1.89899
967	1.95622
968	1.80103
969	2.65963
970	1.91989
971	2.23303
972	1.8148
973	2.08305
974	2.4312
975	1.92554
976	2.28563
977	2.05602
978	3.35477
979	2.06128
980	2.06104
981	2.0729
982	2.30311
983	2.00755
984	2.68421
985	1.93459
986	2.66575
987	2.13414
988	2.3876
989	1.99971
990	1.92477
991	1.87761
992	2.51351
993	2.20274
994	2.15218
995	1.88014
996	2.03052
997	2.29925
998	2.34901
999	2.41957
1000	2.18649
