Data from 13_USB2G479881__0__15-35-42-339.txt Node

Date: Mon Feb 23 15:35:42 GMT 2026
User: Student
Spectrometer: USB2G47988
Scans to average: 10
Trigger mode: 4
Integration Time (sec): 9.000000E-1
Electric dark correction enabled: true
Boxcar width: 0
XAxis mode: Wavelengths
Number of Pixels in Spectrum: 651
>>>>>Begin Spectral Data<<<<<
350	1.17283
351	1.38765
352	0.41669
353	-3.3359
354	0.35873
355	0.28004
356	-1.44331
357	-1.432
358	-4.69223
359	-4.52319
360	0.66772
361	10.94065
362	10.20938
363	-3.68413
364	-7.08787
365	10.09928
366	13.38375
367	2.03784
368	17.0172
369	10.39374
370	-1.31296
371	10.24414
372	3.80402
373	0.81591
374	0.51322
375	-0.14852
376	-1.88977
377	28.62432
378	3.99784
379	0.69138
380	3.98185
381	0.6999
382	13.46125
383	-5.14188
384	13.58328
385	2.54614
386	11.77734
387	4.13299
388	25.19001
389	12.05877
390	0.30582
391	0.64665
392	2.46418
393	21.29318
394	16.3964
395	-0.24402
396	-0.38017
397	38.26248
398	17.94333
399	7.02761
400	13.13852
401	18.78582
402	7.03591
403	3.62815
404	-1.01511
405	-0.88397
406	35.41965
407	-1.24469
408	6.65416
409	2.37188
410	10.49823
411	3.45604
412	3.70669
413	-0.79557
414	0.32278
415	0.49471
416	4.30047
417	2.05824
418	3.87964
419	1.92325
420	1.06934
421	9.99734
422	17.81556
423	3.62918
424	6.18555
425	141.12468
426	9.77706
427	1.20252
428	-0.27543
429	45.67187
430	17.9089
431	7.01333
432	0.68472
433	10.73112
434	2.2763
435	-1.7473
436	21.91117
437	3.4179
438	18.36734
439	81.4494
440	8.08663
441	1.81314
442	5.8325
443	24.03046
444	3.55538
445	-19.75758
446	-2.42261
447	1.99271
448	7.05929
449	17.86125
450	5.69127
451	8.7479
452	5.95973
453	10.84526
454	26.70666
455	10.00091
456	19.47562
457	18.62127
458	11.84362
459	27.3763
460	14.86523
461	13.30962
462	15.31295
463	13.17752
464	12.63078
465	16.16923
466	11.764
467	14.46076
468	27.28901
469	19.3993
470	12.5864
471	8.92275
472	8.28496
473	17.52862
474	13.33125
475	8.2748
476	9.41056
477	16.26035
478	14.79968
479	22.08802
480	6.67823
481	12.10462
482	14.24263
483	8.55652
484	5.66648
485	3.14441
486	10.2542
487	8.13342
488	6.52406
489	32.60106
490	9.17606
491	4.69185
492	22.33449
493	5.60826
494	4.95194
495	10.03683
496	5.22297
497	16.65449
498	27.09947
499	8.19965
500	4.25499
501	18.75155
502	3.45784
503	3.76762
504	27.45913
505	9.9756
506	4.08169
507	6.08281
508	1.34697
509	-14.33448
510	37.86506
511	5.93287
512	6.20974
513	25.49086
514	14.29533
515	13.68395
516	13.5906
517	7.65099
518	11.07359
519	13.21045
520	38.12284
521	14.65565
522	22.89853
523	18.48899
524	21.79593
525	184.63487
526	25.13823
527	41.26038
528	20.76105
529	50.45994
530	24.62345
531	21.26299
532	19.82885
533	36.11918
534	17.28183
535	28.1562
536	58.80476
537	70.37044
538	19.52816
539	21.26707
540	20.7758
541	21.23057
542	15.39274
543	21.57378
544	20.55807
545	22.89686
546	121.40585
547	18.41901
548	20.55566
549	28.57324
550	27.16742
551	15.95079
552	15.95938
553	12.04985
554	13.83478
555	28.72836
556	21.44067
557	13.55913
558	25.49122
559	18.3608
560	10.85959
561	16.59613
562	10.16295
563	18.47169
564	15.22704
565	10.59049
566	13.70536
567	10.66054
568	8.17067
569	15.58486
570	5.91612
571	8.36572
572	7.73705
573	6.5147
574	5.4112
575	7.87536
576	5.2877
577	12.55075
578	6.39828
579	4.75289
580	10.80855
581	5.99717
582	45.34056
583	7.84675
584	-1.15816
585	15.82194
586	8.44615
587	9.84932
588	3.72102
589	3.85112
590	13.75936
591	4.62219
592	11.38772
593	7.23655
594	21.08352
595	5.67177
596	14.76248
597	37.88505
598	34.90119
599	8.28564
600	26.97818
601	17.68696
602	43.15551
603	12.17223
604	19.0878
605	39.73641
606	11.79649
607	10.55258
608	24.75084
609	21.56901
610	15.37653
611	13.04178
612	12.16131
613	16.34861
614	174.63658
615	25.36296
616	13.04523
617	28.64852
618	20.05403
619	15.17772
620	16.16311
621	17.11955
622	15.50006
623	19.28605
624	17.55531
625	19.89581
626	20.94634
627	29.02442
628	35.95004
629	36.50948
630	23.22175
631	30.58673
632	183.67446
633	32.53477
634	48.58258
635	25.60707
636	28.34962
637	33.72092
638	36.08408
639	33.5696
640	40.74221
641	40.56485
642	51.65297
643	47.44195
644	48.03888
645	182.01003
646	53.54084
647	82.03483
648	77.77031
649	77.51164
650	99.21445
651	130.11456
652	164.95085
653	398.04656
654	725.03559
655	1829.48729
656	2376.8962
657	434.11334
658	196.59362
659	155.86646
660	84.55823
661	65.50837
662	56.39221
663	131.30202
664	51.15156
665	46.71613
666	38.28861
667	43.45777
668	37.16633
669	31.49963
670	32.87887
671	36.06919
672	30.04927
673	37.93882
674	21.9462
675	32.85419
676	41.57429
677	24.15163
678	51.04595
679	22.34611
680	21.4592
681	17.1471
682	37.38696
683	10.004
684	33.47038
685	86.69236
686	12.48028
687	9.26891
688	10.00976
689	8.39503
690	27.72492
691	8.90509
692	3.60741
693	16.32492
694	7.51938
695	18.89361
696	4.37455
697	1.31621
698	2.22541
699	7.68374
700	0.81511
701	1.21037
702	6.5014
703	1.35383
704	4.98637
705	31.03838
706	1.68655
707	1.31649
708	2.36741
709	-0.54649
710	0.75393
711	14.80947
712	3.74603
713	38.85824
714	-24.15841
715	-54.82081
716	5.94727
717	3.66493
718	1.64176
719	19.7537
720	1.24271
721	1.33217
722	1.3935
723	4.87011
724	-1.87579
725	4.97096
726	1.6916
727	8.08213
728	-0.97698
729	-3.81203
730	145.63106
731	8.66769
732	5.06266
733	1.12935
734	2.06941
735	18.48282
736	7.27349
737	16.09474
738	1.24872
739	7.27914
740	1.41295
741	101.71004
742	0.34688
743	19.53695
744	17.47676
745	0.99191
746	18.45638
747	9.17703
748	34.40716
749	7.58312
750	3.76267
751	5.99279
752	-0.96752
753	2.11257
754	-2.39325
755	19.96462
756	-0.17318
757	81.29436
758	38.80526
759	36.51414
760	-0.52127
761	2.93556
762	48.87671
763	-3.50444
764	1.0729
765	54.83843
766	8.37581
767	41.2491
768	-1.21094
769	3.4871
770	-1.37407
771	-1.44075
772	4.17074
773	-5.12765
774	1.74599
775	-5.68509
776	52.09783
777	1.84031
778	4.80581
779	-1.70329
780	2.66372
781	5.19648
782	-2.32558
783	12.35547
784	13.62592
785	-3.34804
786	14.59793
787	-0.55217
788	10.47699
789	-1.77461
790	1.84671
791	-3.70756
792	-2.48134
793	0.25471
794	-0.70535
795	1.62098
796	0.91882
797	5.07284
798	-1.90108
799	2.27545
800	7.14008
801	-1.05546
802	0.24668
803	39.87456
804	-1.36375
805	-3.23789
806	4.46502
807	4.17382
808	3.90764
809	2.06356
810	17.72291
811	64.00063
812	32.62836
813	-2.81108
814	2.77304
815	3.97552
816	-1.19411
817	18.52889
818	3.93508
819	-0.00851
820	-2.12466
821	101.49956
822	4.23326
823	-4.39357
824	6.44092
825	0.52986
826	2.39611
827	-4.04385
828	-0.65846
829	-4.30487
830	4.24204
831	3.92597
832	-3.38086
833	7.14471
834	-2.21818
835	10.16628
836	-1.5708
837	-4.71815
838	1.09832
839	3.79491
840	41.87077
841	3.22492
842	3.17942
843	1.47062
844	6.06635
845	-2.46985
846	-3.64993
847	3.40653
848	1.33962
849	-3.35186
850	1.17809
851	-4.5881
852	-2.13127
853	-3.01542
854	-2.9268
855	-2.9889
856	13.17601
857	-1.01435
858	-0.16517
859	0.5541
860	-3.43788
861	1.52122
862	6.3232
863	-0.94404
864	-2.40533
865	8.00187
866	23.12076
867	5.31289
868	-0.11113
869	13.23425
870	2.82487
871	19.12165
872	-3.72857
873	-3.02958
874	1.80585
875	5.54794
876	38.60281
877	0.53151
878	-4.79298
879	19.56148
880	6.68731
881	-0.38757
882	7.15398
883	-3.32144
884	11.4516
885	-6.11376
886	-22.93779
887	-7.76216
888	6.35824
889	-0.9872
890	2.08881
891	91.31559
892	56.06031
893	10.45444
894	48.36165
895	7.80985
896	2.92067
897	-2.48975
898	1.39842
899	1.29586
900	15.95379
901	153.85916
902	-0.86669
903	-4.03528
904	-3.14686
905	-0.03544
906	3.8314
907	-4.36964
908	74.55204
909	6.94605
910	-4.54276
911	-0.43497
912	-2.136
913	0.04291
914	0.0538
915	-0.14482
916	-0.65553
917	4.00748
918	1.32226
919	-1.83145
920	-9.49423
921	6.09187
922	-0.4917
923	7.07905
924	0.22842
925	0.8655
926	-3.83499
927	7.45983
928	-3.85577
929	1.91801
930	-2.62169
931	-0.96674
932	2.89235
933	0.28805
934	5.90316
935	5.7282
936	-1.64709
937	-0.8694
938	7.18551
939	25.10844
940	-2.76431
941	-2.16161
942	-0.54908
943	0.69757
944	2.06625
945	3.52838
946	-8.03949
947	15.39264
948	10.87651
949	0.8558
950	27.22805
951	6.78101
952	-1.79649
953	-1.86667
954	3.81144
955	0.85069
956	-1.20558
957	-3.09307
958	6.3361
959	-0.5782
960	0.93139
961	-3.5624
962	-4.70607
963	6.78909
964	-1.56294
965	-1.29625
966	-4.81529
967	-2.33795
968	-3.49842
969	8.70817
970	-5.07461
971	7.55622
972	-5.13722
973	5.99527
974	6.59758
975	-4.09355
976	6.55637
977	6.87963
978	103.43582
979	1.43956
980	0.91243
981	1.42638
982	9.68158
983	-2.2498
984	33.49895
985	-4.10545
986	10.14535
987	-1.47882
988	21.0514
989	2.52096
990	-2.8342
991	-2.7962
992	33.15135
993	-5.3388
994	3.84553
995	-5.11343
996	2.10877
997	11.48127
998	1.55984
999	30.10554
1000	-2.57563
