Data from 16_USB2G479881__0__15-40-19-168.txt Node

Date: Mon Feb 23 15:40:19 GMT 2026
User: Student
Spectrometer: USB2G47988
Scans to average: 10
Trigger mode: 4
Integration Time (sec): 9.000000E-1
Electric dark correction enabled: true
Boxcar width: 0
XAxis mode: Wavelengths
Number of Pixels in Spectrum: 651
>>>>>Begin Spectral Data<<<<<
350	0.61599
351	1.10843
352	1.65796
353	-3.21866
354	-0.16372
355	1.12665
356	-2.43548
357	-3.36183
358	-3.98252
359	-2.51508
360	-0.58601
361	12.26774
362	9.62837
363	-3.31792
364	-7.74481
365	9.9803
366	12.18977
367	2.61215
368	17.33097
369	8.63532
370	-2.26653
371	9.70146
372	5.63351
373	1.30343
374	1.21908
375	-0.0309
376	-0.72596
377	27.90953
378	2.75918
379	0.13296
380	3.80123
381	1.9998
382	13.78967
383	-5.85916
384	13.12975
385	2.15102
386	12.42263
387	3.75804
388	26.63866
389	11.50971
390	-0.53029
391	2.23886
392	1.63515
393	20.45515
394	17.03422
395	-0.67184
396	-1.68751
397	34.07786
398	17.52561
399	8.00864
400	10.31677
401	17.5375
402	5.9419
403	6.05032
404	-0.81646
405	-0.58416
406	36.01059
407	-2.39984
408	5.92937
409	0.52351
410	11.88902
411	4.21308
412	4.77755
413	0.05927
414	0.49736
415	0.81962
416	3.17446
417	2.45153
418	5.04606
419	1.23639
420	0.95237
421	9.25871
422	19.51355
423	4.30213
424	5.95823
425	136.92266
426	9.07261
427	3.54009
428	-0.78679
429	41.30489
430	16.01262
431	6.48182
432	2.42922
433	10.09357
434	3.92288
435	-2.14502
436	22.38588
437	3.44231
438	19.48368
439	80.31723
440	6.15966
441	1.71199
442	7.47242
443	25.51547
444	6.3675
445	-18.80543
446	-2.13304
447	1.63134
448	5.62445
449	18.34101
450	7.89827
451	6.98242
452	5.9846
453	12.48699
454	25.96224
455	13.22121
456	20.33247
457	16.12429
458	10.99452
459	25.60449
460	15.0858
461	12.26306
462	15.69159
463	10.84625
464	11.69535
465	14.32279
466	9.69056
467	14.71047
468	25.1304
469	16.30967
470	13.32169
471	8.03983
472	7.159
473	14.91703
474	15.20014
475	8.87031
476	11.27073
477	16.37189
478	15.70757
479	21.93672
480	5.27596
481	11.40255
482	14.64557
483	5.96938
484	5.9912
485	4.57293
486	9.99731
487	6.44775
488	7.78146
489	51.75377
490	13.34639
491	4.88881
492	22.48748
493	4.69716
494	4.52521
495	9.77343
496	4.5213
497	17.92353
498	24.94147
499	8.0757
500	4.62657
501	18.6971
502	3.46203
503	5.69619
504	23.86883
505	10.18266
506	4.70878
507	6.16058
508	4.89061
509	-13.40034
510	39.0022
511	7.25309
512	7.31449
513	24.89601
514	13.97577
515	16.83114
516	14.50288
517	8.39394
518	14.63886
519	13.06652
520	39.44676
521	13.99227
522	23.23824
523	18.68163
524	21.743
525	182.57629
526	27.3127
527	42.01399
528	19.92088
529	53.29953
530	24.80219
531	20.41208
532	20.6405
533	36.73002
534	16.52389
535	30.16942
536	59.44152
537	73.02567
538	20.34232
539	19.5116
540	21.4581
541	19.62928
542	14.2272
543	21.78257
544	18.1382
545	23.68043
546	119.62869
547	18.80333
548	22.06457
549	30.81202
550	28.9253
551	15.92793
552	16.35675
553	13.16817
554	13.25934
555	28.42883
556	20.03344
557	12.52071
558	26.42096
559	18.25561
560	11.89581
561	17.05283
562	10.43735
563	18.70531
564	16.96354
565	10.57548
566	14.5537
567	11.18087
568	7.75822
569	16.83025
570	7.32942
571	8.18576
572	7.81867
573	7.86246
574	8.15825
575	7.8861
576	5.97158
577	10.85858
578	9.05513
579	5.69456
580	7.71771
581	7.43413
582	44.98461
583	7.44977
584	2.735
585	17.17888
586	6.48275
587	9.87976
588	4.2446
589	4.24382
590	14.49689
591	4.685
592	12.90998
593	6.62179
594	22.83094
595	7.60896
596	15.75004
597	35.59898
598	35.81398
599	9.96461
600	29.27699
601	18.49896
602	43.68677
603	13.7973
604	21.51753
605	39.82028
606	13.40198
607	12.37575
608	27.16047
609	21.46986
610	15.23407
611	12.91305
612	9.44512
613	16.64419
614	176.3963
615	25.09512
616	14.84797
617	32.47889
618	21.91904
619	16.4045
620	16.17308
621	16.87235
622	17.57861
623	19.19329
624	15.67479
625	22.06467
626	21.15524
627	26.90255
628	36.66779
629	38.00559
630	21.9739
631	30.16199
632	186.62816
633	35.04793
634	50.60794
635	29.27604
636	30.16514
637	34.99547
638	33.21843
639	34.31758
640	41.49551
641	41.16641
642	51.73529
643	45.98492
644	47.94958
645	250.72931
646	48.74743
647	94.79238
648	93.29075
649	92.34182
650	103.27184
651	131.73183
652	207.14189
653	562.19248
654	1387.70977
655	1509.91659
656	1649.0556
657	338.36168
658	177.65468
659	170.77721
660	90.62487
661	63.54882
662	57.64755
663	129.98231
664	55.05091
665	47.79401
666	40.76904
667	39.80097
668	34.29571
669	37.47801
670	32.45239
671	34.44736
672	24.54195
673	36.00064
674	22.2633
675	33.75793
676	44.41045
677	24.34624
678	52.93905
679	22.40434
680	18.8423
681	18.80555
682	39.56772
683	11.47948
684	32.88224
685	82.42916
686	10.61992
687	10.03803
688	10.03628
689	7.4259
690	30.37579
691	7.34416
692	4.51502
693	15.97289
694	10.31114
695	16.71788
696	4.44231
697	2.31934
698	1.8068
699	8.50552
700	0.20436
701	2.16299
702	6.6293
703	2.0293
704	5.63335
705	33.38021
706	3.74342
707	1.99087
708	3.7984
709	0.73209
710	0.41422
711	17.73829
712	1.85219
713	36.70506
714	-25.51491
715	-54.89612
716	4.07613
717	3.6915
718	1.75384
719	19.3053
720	-0.26874
721	-0.0226
722	0.16541
723	6.62553
724	-1.41077
725	5.62666
726	4.0664
727	9.27867
728	-0.10239
729	-2.74967
730	144.33645
731	9.2854
732	4.90117
733	3.71026
734	-0.7281
735	19.85062
736	9.71725
737	15.88088
738	3.25018
739	7.94277
740	2.41711
741	102.29148
742	-0.49271
743	19.33455
744	16.58089
745	3.31699
746	19.2156
747	9.44735
748	32.05941
749	9.44092
750	3.90487
751	6.2203
752	0.18722
753	1.92478
754	-3.61011
755	21.90886
756	2.49974
757	80.24999
758	40.0268
759	38.30681
760	1.62304
761	2.73014
762	189.14242
763	-2.24953
764	1.75465
765	54.90114
766	9.05064
767	43.90886
768	-1.43091
769	6.66442
770	-4.5918
771	0.03265
772	5.98622
773	-3.53155
774	1.69586
775	-4.55465
776	59.65306
777	0.8917
778	4.19201
779	-0.32966
780	4.2791
781	4.37877
782	-3.07097
783	13.2035
784	14.85512
785	-3.90914
786	15.07457
787	0.18465
788	13.32223
789	-0.52657
790	0.91481
791	-3.59615
792	-1.63269
793	0.16898
794	-1.77063
795	0.59709
796	1.5933
797	2.37571
798	-2.48754
799	3.44508
800	5.13664
801	-1.69517
802	1.62877
803	41.53814
804	-2.42199
805	-4.95542
806	4.6871
807	4.54554
808	5.06774
809	3.12913
810	16.77761
811	64.73803
812	33.06695
813	-4.43619
814	4.60684
815	4.5213
816	-0.71144
817	15.69942
818	5.9415
819	-1.41527
820	-2.84857
821	102.56155
822	3.65998
823	-5.83014
824	4.35497
825	-1.78766
826	1.16596
827	-1.69371
828	-2.01775
829	-2.78786
830	4.73392
831	4.62604
832	-3.26745
833	9.2535
834	-1.84859
835	10.04868
836	-1.32644
837	-4.09572
838	-0.19355
839	3.44393
840	38.64877
841	3.4721
842	2.61282
843	1.11217
844	5.67819
845	-3.00803
846	-12.66714
847	-17.33255
848	2.30225
849	-6.18357
850	2.56239
851	-3.75179
852	-6.16557
853	-2.60285
854	-3.09236
855	-1.92198
856	12.55504
857	-1.75485
858	-0.99385
859	-0.10823
860	-1.78777
861	1.54911
862	6.58135
863	-0.79945
864	-2.10385
865	8.13451
866	21.19932
867	5.44354
868	-1.46705
869	11.92779
870	3.51139
871	21.09996
872	-3.63195
873	-3.39997
874	0.02987
875	5.47483
876	37.97887
877	0.08051
878	-5.49142
879	21.44392
880	9.4259
881	0.74326
882	6.71899
883	-2.84632
884	10.12898
885	-5.42511
886	-24.57686
887	-5.6912
888	5.72431
889	-3.02369
890	2.07858
891	91.25462
892	56.57819
893	11.07076
894	46.92029
895	6.14322
896	2.92828
897	-3.5483
898	-0.60105
899	0.06811
900	16.96415
901	156.35596
902	-1.27007
903	-3.31176
904	-4.88966
905	0.31887
906	3.5997
907	-4.69444
908	72.4933
909	7.07768
910	-5.72811
911	-0.83063
912	-2.84831
913	-2.30773
914	-0.09465
915	-0.23852
916	-0.82217
917	5.32623
918	0.05841
919	-0.40903
920	-8.04844
921	6.6257
922	0.49364
923	8.41253
924	1.38358
925	1.26265
926	-5.62279
927	6.37444
928	-3.63934
929	3.57449
930	-4.11064
931	-1.22599
932	0.93098
933	1.12995
934	5.75363
935	3.33973
936	-2.89444
937	0.64074
938	5.97581
939	25.50646
940	-1.31096
941	-0.82534
942	-1.33688
943	-1.44332
944	4.53261
945	1.24803
946	-8.60698
947	18.21924
948	10.56122
949	1.07238
950	26.32537
951	4.82143
952	-4.60702
953	0.63861
954	4.06126
955	0.48202
956	-0.38829
957	-2.57891
958	6.48983
959	-1.21439
960	-0.64049
961	-3.39837
962	-4.07727
963	6.11763
964	-1.89437
965	-1.8467
966	-6.14833
967	-5.22748
968	-2.00461
969	9.29348
970	-4.63374
971	6.72937
972	-4.85499
973	8.43063
974	5.45947
975	-2.99208
976	4.20467
977	7.73193
978	37.40721
979	2.70481
980	1.64548
981	1.68895
982	9.28107
983	-2.12628
984	33.17717
985	-4.31337
986	11.85119
987	-0.33456
988	19.39735
989	2.06446
990	-5.19474
991	-2.89167
992	34.28841
993	-6.22218
994	5.45146
995	-6.40573
996	-0.10289
997	10.90462
998	3.85393
999	29.76183
1000	-1.3367
