Data from 34_USB2G479881__0__16-28-23-622.txt Node

Date: Mon Feb 23 16:28:23 GMT 2026
User: Student
Spectrometer: USB2G47988
Scans to average: 10
Trigger mode: 4
Integration Time (sec): 9.000000E-1
Electric dark correction enabled: true
Boxcar width: 0
XAxis mode: Wavelengths
Number of Pixels in Spectrum: 651
>>>>>Begin Spectral Data<<<<<
350	1.05263
351	1.03751
352	1.90801
353	-3.59969
354	-0.39846
355	1.47742
356	-1.81642
357	-2.58871
358	-4.06345
359	-4.09782
360	-0.62566
361	9.27606
362	12.09313
363	-2.36903
364	-6.21661
365	11.85872
366	12.93781
367	2.69487
368	17.94699
369	8.41633
370	-1.00984
371	10.85411
372	4.16186
373	2.88087
374	1.7672
375	0.13206
376	-0.67524
377	27.58083
378	5.25441
379	0.24407
380	4.80685
381	1.68267
382	15.73278
383	-5.53146
384	15.63641
385	3.95331
386	11.91049
387	2.5848
388	24.58601
389	10.90067
390	-1.5961
391	1.5307
392	0.74175
393	22.72335
394	16.39961
395	0.4085
396	-0.70228
397	34.11839
398	18.3101
399	7.74934
400	8.69311
401	16.98379
402	6.42374
403	4.3483
404	0.28155
405	-1.43836
406	34.20171
407	0.48212
408	6.59258
409	1.85205
410	11.44846
411	5.47372
412	4.0177
413	-0.24024
414	-0.92174
415	1.97279
416	3.80672
417	2.02342
418	4.90076
419	2.29387
420	-1.17898
421	9.11648
422	20.40727
423	3.32818
424	7.0274
425	142.58769
426	8.41271
427	3.25603
428	-0.52602
429	41.06556
430	16.61836
431	8.12695
432	-0.24696
433	12.80884
434	3.67988
435	-2.84979
436	23.43531
437	4.60211
438	18.27525
439	80.03523
440	8.04945
441	0.80375
442	5.40301
443	27.63634
444	3.216
445	-25.19596
446	-6.89306
447	0.96328
448	5.79752
449	12.97573
450	2.34269
451	3.14659
452	0.93281
453	5.15295
454	20.23759
455	3.44896
456	7.84922
457	5.63132
458	0.31399
459	13.90727
460	2.50422
461	0.99494
462	3.90319
463	2.28903
464	1.13465
465	3.23108
466	1.13037
467	4.57207
468	19.80823
469	9.60101
470	3.61193
471	-0.72803
472	-0.03868
473	5.6089
474	4.96746
475	-0.50372
476	3.48289
477	8.99452
478	8.29799
479	12.18677
480	-1.8842
481	8.94897
482	5.88986
483	0.91768
484	-0.53659
485	-2.10408
486	5.20948
487	3.09065
488	2.94636
489	47.73254
490	5.23657
491	0.87736
492	17.47224
493	0.80025
494	-0.13224
495	4.48113
496	0.97133
497	13.55435
498	23.07513
499	3.7163
500	0.02626
501	15.33258
502	-1.70411
503	-0.31162
504	19.52913
505	4.90246
506	-1.73801
507	-2.67887
508	-1.27759
509	-20.33911
510	29.47609
511	0.81536
512	-1.70167
513	15.68656
514	3.76804
515	3.19186
516	3.06731
517	-3.9422
518	3.62429
519	-0.39568
520	22.92821
521	1.33263
522	9.77855
523	3.15988
524	5.46227
525	168.43455
526	14.1896
527	23.18369
528	4.52932
529	31.95536
530	5.91654
531	2.55479
532	1.94016
533	15.86244
534	-0.72214
535	13.06163
536	34.32939
537	58.18976
538	3.72643
539	0.87472
540	1.903
541	1.54871
542	0.34558
543	2.93497
544	3.85845
545	4.60263
546	92.40362
547	3.86305
548	7.93666
549	12.06901
550	13.04386
551	1.65649
552	2.39137
553	-2.60005
554	0.54006
555	15.32582
556	10.22523
557	-0.97202
558	16.35459
559	6.97812
560	0.39276
561	5.53432
562	1.18191
563	6.25107
564	8.14061
565	0.59622
566	5.35038
567	2.84954
568	-1.36411
569	9.77718
570	0.32728
571	1.57315
572	-1.59783
573	-0.7217
574	-0.99258
575	2.05452
576	-0.49316
577	4.5076
578	1.84498
579	-3.03623
580	2.35008
581	1.25713
582	31.9009
583	0.37355
584	-5.53267
585	11.30313
586	0.21729
587	3.78492
588	-2.61039
589	-4.5282
590	6.90568
591	-1.4544
592	1.69699
593	-0.34581
594	17.60283
595	0.41877
596	7.66815
597	27.8183
598	28.31501
599	-0.00388
600	16.70745
601	10.40295
602	31.50511
603	2.54377
604	7.24405
605	31.18398
606	1.06614
607	0.43029
608	12.60826
609	9.3854
610	2.69344
611	0.44977
612	-2.17437
613	1.82067
614	154.15813
615	13.30417
616	-0.00772
617	13.02435
618	5.19182
619	1.80531
620	3.35858
621	1.8062
622	1.30101
623	3.76544
624	0.27653
625	2.23619
626	0.61467
627	9.52742
628	18.62325
629	15.38141
630	1.3783
631	9.72969
632	166.89694
633	11.2774
634	23.34978
635	4.40094
636	3.32235
637	5.3469
638	4.68993
639	8.51999
640	18.11233
641	9.98231
642	15.39601
643	9.91864
644	9.90113
645	162.12559
646	7.05616
647	29.31854
648	29.91773
649	23.0893
650	37.98827
651	38.42859
652	42.67424
653	86.2563
654	404.72376
655	1357.85332
656	1119.1025
657	173.3265
658	84.7034
659	91.61108
660	39.75102
661	20.05261
662	14.29156
663	79.4766
664	12.45566
665	11.3749
666	7.87901
667	9.01007
668	6.69067
669	9.06437
670	7.05606
671	9.8794
672	4.29123
673	8.78991
674	1.7197
675	23.48249
676	21.70715
677	14.4919
678	36.08106
679	13.0863
680	6.99791
681	8.23652
682	25.4352
683	2.87983
684	24.77737
685	71.34346
686	2.76148
687	1.76152
688	2.57038
689	1.45027
690	19.08941
691	1.75295
692	-0.5696
693	11.57932
694	2.19562
695	14.26236
696	0.94105
697	-4.75118
698	-2.01634
699	4.29657
700	-1.88942
701	-2.32777
702	1.11864
703	-2.75699
704	1.64113
705	27.58727
706	-0.6207
707	-1.30827
708	2.67765
709	-2.81731
710	-1.66627
711	14.1949
712	1.09145
713	32.99368
714	-27.82335
715	-59.66017
716	4.47625
717	0.21058
718	-1.50535
719	20.22572
720	-1.63064
721	-0.37514
722	-2.9462
723	4.13265
724	-3.25962
725	4.96603
726	1.96863
727	7.53616
728	-1.00849
729	-5.03841
730	148.18501
731	8.63998
732	3.63806
733	2.27266
734	-2.13912
735	17.24502
736	10.09174
737	16.21888
738	0.58691
739	5.81272
740	-0.12276
741	103.22775
742	-0.12174
743	21.6466
744	15.87197
745	-0.27751
746	18.71325
747	10.32535
748	33.14276
749	6.71942
750	2.32911
751	5.94769
752	-0.91494
753	1.2641
754	-3.2994
755	19.17823
756	0.44402
757	82.5394
758	40.81144
759	37.31232
760	-1.35017
761	3.33728
762	47.7389
763	-2.58744
764	0.11145
765	26.4012
766	5.06161
767	43.78766
768	0.06743
769	4.56459
770	-3.31798
771	0.64175
772	5.25124
773	-3.79835
774	0.59123
775	-4.09936
776	66.08537
777	1.18787
778	4.50153
779	-1.37392
780	2.56521
781	5.09936
782	-4.02211
783	16.43611
784	12.20879
785	-3.40929
786	16.48764
787	0.11431
788	14.70208
789	-3.4796
790	0.90541
791	-2.97933
792	-1.61958
793	0.71002
794	-2.25569
795	1.07144
796	0.95838
797	3.60797
798	-2.21445
799	3.55112
800	4.66273
801	-1.66045
802	0.86818
803	41.15962
804	-0.87783
805	-3.52067
806	4.0628
807	4.08931
808	3.77833
809	0.86909
810	16.6962
811	64.51429
812	34.06996
813	-2.69896
814	4.41649
815	5.04172
816	-0.22824
817	19.9163
818	4.27217
819	0.81105
820	-1.84946
821	19.31692
822	4.49034
823	-3.6898
824	7.68339
825	-1.55468
826	2.75476
827	-3.63548
828	-1.28213
829	-2.57851
830	5.84223
831	4.37836
832	-2.67833
833	9.53735
834	-3.83479
835	11.44132
836	-0.55029
837	-4.14875
838	0.34277
839	4.49773
840	39.40859
841	3.18424
842	4.65071
843	1.00492
844	9.33023
845	-2.31753
846	-12.16609
847	-16.72049
848	5.28989
849	-3.51177
850	1.76721
851	-3.61018
852	-3.63991
853	-0.30303
854	-2.8818
855	-2.24805
856	13.71472
857	-1.12091
858	-2.14297
859	2.08583
860	-2.76001
861	1.93009
862	8.85702
863	0.46552
864	-2.17278
865	9.80086
866	23.76022
867	7.2595
868	-0.55753
869	15.38369
870	5.06606
871	22.50192
872	-2.74436
873	-2.92946
874	3.01984
875	5.64415
876	37.43603
877	1.16878
878	-4.40492
879	19.31105
880	9.46917
881	0.3321
882	7.92055
883	-2.14289
884	11.22104
885	-5.60569
886	-21.91422
887	-5.27779
888	7.93723
889	-0.99238
890	3.16407
891	90.93141
892	56.89752
893	12.24862
894	49.11196
895	7.93102
896	4.80458
897	-0.78428
898	0.32342
899	0.27983
900	17.42518
901	160.28004
902	0.1386
903	-1.80307
904	-2.25968
905	1.44402
906	4.92217
907	-3.54414
908	75.43339
909	8.94242
910	-1.11625
911	-1.32438
912	1.11686
913	0.1826
914	1.82322
915	1.70083
916	1.0812
917	5.26989
918	1.32909
919	-0.27356
920	-7.36931
921	8.62401
922	3.10192
923	9.53322
924	3.55917
925	-0.13215
926	-3.93749
927	8.37217
928	-3.02206
929	2.92267
930	-1.74925
931	0.3095
932	3.96137
933	2.43792
934	5.31164
935	7.64807
936	-1.4383
937	-0.6386
938	7.57953
939	26.30474
940	-1.88865
941	-0.77551
942	-1.1327
943	1.06559
944	5.51068
945	4.73418
946	-8.29926
947	3.53253
948	10.37465
949	3.80644
950	29.42299
951	6.43326
952	-1.93687
953	-0.90352
954	5.06048
955	2.80418
956	-0.33697
957	-0.00209
958	4.90302
959	2.0532
960	1.73875
961	-1.77487
962	-3.9247
963	7.83769
964	-0.49329
965	-0.47917
966	-4.11096
967	-4.69247
968	-1.18494
969	9.85435
970	-3.47841
971	9.91889
972	-3.96587
973	8.96721
974	7.71278
975	-0.37259
976	7.47567
977	6.98856
978	103.13309
979	3.5747
980	2.86373
981	4.57163
982	10.68278
983	-1.56264
984	35.21223
985	-3.16625
986	12.71557
987	-0.01653
988	19.4705
989	3.03482
990	-2.48889
991	-0.76432
992	34.92842
993	-4.60421
994	4.79056
995	-2.85841
996	-0.33902
997	15.1647
998	2.89825
999	30.8398
1000	-2.48824
