Data from 44_USB2G479881__0__16-44-37-570.txt Node

Date: Mon Feb 23 16:44:37 GMT 2026
User: Student
Spectrometer: USB2G47988
Scans to average: 10
Trigger mode: 4
Integration Time (sec): 9.000000E-1
Electric dark correction enabled: true
Boxcar width: 0
XAxis mode: Wavelengths
Number of Pixels in Spectrum: 651
>>>>>Begin Spectral Data<<<<<
350	1.06037
351	0.24466
352	1.9603
353	-3.01883
354	-0.24649
355	2.49875
356	-0.1479
357	-1.20639
358	-2.8077
359	-4.16173
360	-0.70694
361	9.73353
362	10.27673
363	-2.6919
364	-7.0504
365	12.53752
366	11.22666
367	2.82287
368	18.32891
369	9.26573
370	-1.19752
371	10.14992
372	3.61506
373	0.60563
374	1.8424
375	-0.32126
376	-1.35695
377	28.13737
378	3.88683
379	-0.28195
380	4.24552
381	1.27105
382	14.8834
383	-4.188
384	16.5687
385	2.94324
386	13.23284
387	4.63872
388	25.34909
389	10.25702
390	-0.47265
391	1.38764
392	1.68641
393	21.8784
394	16.93348
395	-0.03662
396	-1.30913
397	36.26054
398	19.49124
399	11.38816
400	11.40987
401	19.99462
402	6.77701
403	4.22678
404	-0.23961
405	0.03387
406	34.3065
407	-0.32087
408	6.25974
409	1.2112
410	11.95423
411	3.79213
412	0.5269
413	0.27107
414	1.70764
415	3.20055
416	4.80251
417	3.49383
418	4.17772
419	2.42387
420	0.11087
421	9.78883
422	20.39661
423	4.67718
424	6.67089
425	145.55722
426	10.75526
427	1.12585
428	-0.28748
429	42.99399
430	17.99
431	7.57487
432	-1.271
433	14.56827
434	2.99477
435	-1.37974
436	22.67498
437	5.93364
438	18.51822
439	84.81508
440	7.41371
441	0.82108
442	6.31779
443	25.23974
444	3.63984
445	-24.53618
446	-3.41111
447	-1.21584
448	4.56955
449	10.88152
450	2.84544
451	2.19275
452	0.66127
453	7.26602
454	21.13732
455	2.80462
456	8.27409
457	8.77413
458	-0.37251
459	13.40768
460	3.18518
461	0.02118
462	2.97807
463	2.18797
464	1.73898
465	3.23826
466	1.45443
467	5.74081
468	21.39293
469	9.49931
470	4.13401
471	0.35007
472	-0.87278
473	6.95585
474	5.1065
475	0.30468
476	3.10953
477	7.39868
478	7.417
479	13.58874
480	-2.00547
481	7.4651
482	7.89838
483	0.65486
484	-0.53893
485	-2.58208
486	5.15367
487	3.47663
488	5.17701
489	47.47281
490	7.32063
491	2.29322
492	16.6297
493	0.67076
494	1.49105
495	7.39281
496	0.74534
497	14.28386
498	21.85139
499	4.61353
500	0.21576
501	14.75563
502	-0.47146
503	0.14731
504	18.79842
505	5.45511
506	-0.134
507	-0.63777
508	-2.46062
509	-18.99789
510	30.37908
511	-0.24209
512	-1.49487
513	16.30075
514	4.39094
515	3.92236
516	1.70182
517	-2.82043
518	5.87268
519	-0.63895
520	24.42591
521	2.92386
522	12.11406
523	4.01426
524	7.65081
525	171.25025
526	13.97605
527	21.98182
528	6.55848
529	33.38519
530	7.23281
531	1.56758
532	3.89726
533	17.33868
534	-0.30449
535	15.37864
536	34.19828
537	60.76234
538	4.33075
539	2.35536
540	3.37524
541	1.52885
542	0.78769
543	3.47495
544	2.90404
545	5.92093
546	96.03593
547	3.39833
548	6.72366
549	11.20038
550	13.32826
551	1.0619
552	2.08986
553	-2.50571
554	-0.41755
555	13.22064
556	8.82312
557	2.4138
558	17.12883
559	8.67151
560	-0.58157
561	4.33386
562	1.90465
563	6.25321
564	8.87851
565	1.23118
566	4.44888
567	2.92127
568	-0.97235
569	9.4798
570	-0.28861
571	1.36527
572	0.79079
573	-0.5422
574	-2.38721
575	1.60691
576	0.02294
577	4.49914
578	1.62151
579	-3.50498
580	2.64437
581	1.43484
582	33.22186
583	1.36516
584	-7.23661
585	12.41112
586	-1.05288
587	3.97789
588	-2.65951
589	-1.32296
590	9.30801
591	-2.04228
592	12.99611
593	-1.70922
594	16.0231
595	-0.19959
596	6.24867
597	26.47262
598	27.75388
599	-1.65421
600	14.83217
601	10.58653
602	31.22396
603	2.19801
604	8.35748
605	30.76764
606	-0.10947
607	-0.63569
608	12.86579
609	8.82969
610	2.8101
611	0.52651
612	-2.76826
613	2.29961
614	159.11789
615	10.38766
616	-1.24053
617	11.30344
618	6.04709
619	1.5809
620	2.73958
621	2.20329
622	-0.31875
623	0.5303
624	-1.78656
625	2.71869
626	0.65874
627	8.90497
628	20.0509
629	15.30264
630	1.94472
631	8.3999
632	162.77251
633	9.40816
634	22.44301
635	3.53771
636	0.47225
637	3.99068
638	0.44719
639	2.88387
640	15.53962
641	4.41812
642	9.9744
643	7.58619
644	5.53572
645	193.69292
646	-2.50275
647	20.44446
648	20.12544
649	13.07307
650	27.07964
651	21.19222
652	21.90048
653	39.01889
654	153.86713
655	1242.29235
656	630.58348
657	110.13631
658	60.26625
659	74.45559
660	27.99399
661	12.18249
662	8.72393
663	73.30989
664	5.84703
665	5.62977
666	4.0994
667	5.51943
668	2.48661
669	5.11432
670	3.31808
671	6.05416
672	0.3269
673	6.15945
674	0.5133
675	20.17302
676	21.20287
677	11.71404
678	35.03446
679	11.23142
680	3.46203
681	5.77069
682	25.34562
683	3.28681
684	23.30819
685	72.52547
686	3.03856
687	0.80235
688	3.47056
689	1.44016
690	19.26415
691	1.6302
692	-1.30059
693	9.32319
694	1.74267
695	14.50163
696	-0.61341
697	-3.34936
698	-2.91045
699	3.86808
700	-3.29206
701	-1.72982
702	3.69976
703	-1.41056
704	1.41687
705	28.58791
706	0.23616
707	-2.86191
708	0.80908
709	-3.07546
710	-3.64159
711	14.36979
712	-0.21756
713	34.08094
714	-28.42346
715	-57.72861
716	3.73828
717	-0.11851
718	-1.15556
719	20.48278
720	-0.15254
721	-2.15798
722	-0.81726
723	3.34404
724	-3.76871
725	5.42909
726	1.26376
727	8.58718
728	-2.75086
729	-5.11147
730	149.01209
731	9.32609
732	3.71784
733	0.20901
734	-1.25498
735	17.00921
736	9.6479
737	18.01078
738	2.79486
739	7.31562
740	-0.94874
741	94.01807
742	-0.37273
743	22.7083
744	14.35968
745	1.0356
746	19.18334
747	10.89911
748	33.57721
749	7.58661
750	3.08941
751	4.7923
752	0.17385
753	2.357
754	-4.02194
755	19.88332
756	1.68502
757	81.64362
758	40.94781
759	37.37814
760	0.35766
761	3.14391
762	79.274
763	-2.23782
764	0.34823
765	57.3795
766	9.40766
767	46.27098
768	-0.30131
769	5.34806
770	-2.45188
771	-1.07283
772	5.88435
773	-4.84161
774	0.9956
775	-6.12002
776	67.43108
777	2.99099
778	3.6156
779	-1.31703
780	3.87867
781	4.95687
782	-3.76773
783	15.38968
784	12.45077
785	-3.33718
786	13.98424
787	0.48115
788	14.25819
789	-1.87783
790	1.07641
791	-3.31254
792	-1.72789
793	2.95808
794	0.0189
795	0.46092
796	1.27712
797	3.21248
798	-0.75362
799	4.74994
800	5.32626
801	-1.20586
802	-0.27409
803	41.72396
804	-0.44352
805	-4.6185
806	3.62156
807	3.95304
808	6.72443
809	2.46225
810	15.3663
811	67.00513
812	35.13266
813	-2.56661
814	4.11111
815	5.08198
816	-0.12011
817	21.91822
818	3.5225
819	1.81022
820	-1.01574
821	20.01599
822	3.40858
823	-4.16836
824	7.21769
825	-1.757
826	2.5752
827	-3.10087
828	-0.83453
829	-2.72322
830	4.12254
831	5.40334
832	-3.38434
833	10.32764
834	-0.79211
835	10.00817
836	-0.74978
837	-4.86414
838	1.00622
839	3.63666
840	39.78789
841	1.35771
842	6.04644
843	1.64677
844	7.33131
845	0.35246
846	-12.27711
847	-16.6066
848	4.88694
849	-3.86263
850	3.27955
851	-2.51938
852	-2.32443
853	-1.24426
854	-2.38011
855	-2.30513
856	13.19803
857	-0.96343
858	-2.16368
859	-0.25388
860	0.26476
861	3.22566
862	10.64473
863	0.53627
864	-1.98595
865	10.4251
866	19.91601
867	8.38743
868	1.2138
869	13.6537
870	5.20248
871	23.99441
872	-3.17539
873	-3.27941
874	1.25169
875	5.99737
876	40.78326
877	1.30418
878	-4.81542
879	21.89875
880	9.23047
881	2.1296
882	8.97532
883	-1.68162
884	10.92719
885	-5.4618
886	-23.26473
887	-3.45127
888	9.20118
889	-0.12798
890	4.40546
891	99.47953
892	60.67279
893	14.1445
894	52.06498
895	9.11681
896	4.6205
897	-1.0174
898	3.26821
899	1.30381
900	18.25295
901	162.36969
902	0.48131
903	-2.78954
904	-2.49987
905	0.51022
906	6.26597
907	-4.43523
908	77.93967
909	7.75935
910	-3.51201
911	-0.25047
912	-4.09117
913	-1.45909
914	1.07331
915	1.40897
916	1.39958
917	4.99571
918	0.68663
919	-0.09115
920	-8.83713
921	8.20017
922	3.20027
923	9.59833
924	3.47834
925	3.53458
926	-4.37204
927	8.91064
928	-2.41792
929	3.74678
930	-0.11346
931	-0.33965
932	2.99538
933	3.09215
934	5.98805
935	4.58326
936	0.34648
937	-3.00223
938	8.89182
939	25.58819
940	-0.22478
941	-0.35557
942	-1.38138
943	2.77695
944	4.05603
945	5.36934
946	-8.42789
947	4.26446
948	11.10065
949	2.35033
950	27.5589
951	5.90883
952	-2.80715
953	1.1602
954	5.36329
955	3.40252
956	1.4274
957	-0.94032
958	5.48128
959	0.12323
960	0.36277
961	-1.53519
962	-2.53331
963	9.1295
964	-0.30944
965	0.87521
966	-4.48711
967	-2.55546
968	-3.22141
969	10.92832
970	-3.00964
971	9.45598
972	-4.38084
973	5.79134
974	2.61468
975	-2.25843
976	7.35594
977	7.78163
978	116.07261
979	4.13173
980	2.72453
981	4.11038
982	12.42744
983	-1.3236
984	38.43962
985	-3.37583
986	12.00417
987	0.1009
988	21.34386
989	3.37497
990	-2.64124
991	-2.36233
992	36.0924
993	-5.37566
994	7.12295
995	-3.07993
996	1.21528
997	13.86983
998	5.65122
999	31.87434
1000	-2.73817
